'sample interval','PLETH','I'
'0.008 sec','mV','mV'
133001,0.42850000,0.09149278
133002,0.48300000,0.05617978
133003,0.53250000,0.05617978
133004,0.58200000,0.02407705
133005,0.63650000,0.00963082
133006,0.68150000,-0.04280364
133007,0.71750000,-0.05457464
133008,0.74950000,-0.04868914
133009,0.78100000,-0.04280364
133010,0.79450000,-0.05778491
133011,0.80800000,-0.07223114
133012,0.80800000,-0.06367041
133013,0.80800000,-0.03103264
133014,0.79450000,-0.03103264
133015,0.78100000,-0.02835741
133016,0.76300000,-0.05778491
133017,0.73550000,-0.03691814
133018,0.71300000,-0.00481541
133019,0.68150000,-0.00749064
133020,0.65000000,-0.03424291
133021,0.60950000,-0.04601391
133022,0.56850000,-0.00749064
133023,0.51900000,-0.01337614
133024,0.47400000,-0.04012841
133025,0.42400000,-0.04868914
133026,0.37900000,-0.05457464
133027,0.32500000,-0.04012841
133028,0.28400000,-0.02247191
133029,0.23450000,-0.04012841
133030,0.19850000,-0.00749064
133031,0.16700000,-0.00481541
133032,0.13950000,-0.00160514
133033,0.11700000,-0.04868914
133034,0.10350000,-0.02514714
133035,0.09900000,-0.04280364
133036,0.09900000,-0.00749064
133037,0.09900000,-0.00749064
133038,0.10800000,-0.02247191
133039,0.11250000,-0.04012841
133040,0.12600000,-0.06046014
133041,0.13500000,-0.05778491
133042,0.14850000,-0.05457464
133043,0.15750000,-0.07223114
133044,0.16700000,-0.09577314
133045,0.16700000,-0.06955591
133046,0.16700000,0.04761905
133047,0.15750000,0.23220974
133048,0.14400000,0.38790797
133049,0.13050000,0.49331193
133050,0.11700000,0.31460674
133051,0.09450000,0.05350455
133052,0.06750000,-0.03691814
133053,0.04050000,-0.04280364
133054,0.02250000,-0.04868914
133055,-0.00500000,-0.02514714
133056,-0.03200000,-0.05457464
133057,-0.05000000,-0.10754414
133058,-0.06350000,-0.09898341
133059,-0.07250000,-0.08400214
133060,-0.08150000,-0.03424291
133061,-0.08600000,-0.04012841
133062,-0.09500000,-0.06955591
133063,-0.09050000,-0.06634564
133064,-0.09500000,-0.06955591
133065,-0.09500000,-0.08132691
133066,-0.10400000,-0.05457464
133067,-0.10850000,-0.04601391
133068,-0.11750000,-0.05778491
133069,-0.12200000,-0.01926164
133070,-0.13150000,0.00107009
133071,-0.14050000,-0.01337614
133072,-0.14950000,-0.00481541
133073,-0.15850000,-0.00749064
133074,-0.15850000,-0.00481541
133075,-0.14500000,0.01819155
133076,-0.13150000,0.05617978
133077,-0.11300000,0.07704655
133078,-0.08150000,0.10058855
133079,-0.05000000,0.10058855
133080,-0.01400000,0.08560728
133081,0.01750000,0.07704655
133082,0.04950000,0.06206528
133083,0.07650000,0.06206528
133084,0.10350000,0.03584805
133085,0.11700000,-0.00160514
133086,0.12600000,-0.02247191
133087,0.13500000,-0.04012841
133088,0.13050000,-0.06367041
133089,0.13500000,-0.03691814
133090,0.13500000,-0.06634564
133091,0.13500000,-0.06955591
133092,0.12600000,-0.06046014
133093,0.13050000,-0.05778491
133094,0.13050000,-0.04012841
133095,0.11700000,-0.04601391
133096,0.10800000,-0.07811664
133097,0.09000000,-0.06046014
133098,0.06750000,-0.03691814
133099,0.03600000,-0.04280364
133100,-0.00950000,-0.05457464
133101,-0.05450000,-0.04868914
133102,-0.10850000,-0.02835741
133103,-0.16300000,-0.04868914
133104,-0.21700000,-0.02247191
133105,-0.27600000,-0.00481541
133106,-0.33450000,-0.00481541
133107,-0.39750000,-0.01926164
133108,-0.45650000,-0.04012841
133109,-0.50600000,-0.02247191
133110,-0.55550000,-0.02514714
133111,-0.60100000,-0.02835741
133112,-0.63700000,-0.05457464
133113,-0.65950000,-0.05457464
133114,-0.67300000,-0.05778491
133115,-0.68200000,-0.06955591
133116,-0.67300000,-0.07223114
133117,-0.64600000,-0.07544141
133118,-0.61450000,-0.06367041
133119,-0.56950000,-0.11342964
133120,-0.51950000,-0.14285714
133121,-0.46100000,-0.11075441
133122,-0.40650000,0.05617978
133123,-0.34800000,0.26163724
133124,-0.29400000,0.44943820
133125,-0.24400000,0.44943820
133126,-0.20350000,0.16211878
133127,-0.16750000,-0.05189941
133128,-0.14500000,-0.07811664
133129,-0.12700000,-0.06367041
133130,-0.12200000,-0.05778491
133131,-0.11750000,-0.06046014
133132,-0.12700000,-0.06046014
133133,-0.14950000,-0.07544141
133134,-0.16750000,-0.07544141
133135,-0.19450000,-0.09577314
133136,-0.22150000,-0.09898341
133137,-0.24850000,-0.07544141
133138,-0.28050000,-0.04012841
133139,-0.30300000,-0.02247191
133140,-0.33000000,-0.04012841
133141,-0.34800000,-0.04868914
133142,-0.36600000,-0.05778491
133143,-0.37050000,-0.05778491
133144,-0.37500000,-0.04868914
133145,-0.36600000,-0.02247191
133146,-0.34800000,-0.02247191
133147,-0.32100000,-0.00481541
133148,-0.28950000,0.00642055
133149,-0.24400000,0.00107009
133150,-0.19000000,0.00642055
133151,-0.13150000,0.04173355
133152,-0.05900000,0.07383628
133153,0.01300000,0.08293205
133154,0.09450000,0.07704655
133155,0.17150000,0.08293205
133156,0.25700000,0.06527555
133157,0.33850000,0.05029428
133158,0.41050000,0.02996255
133159,0.48750000,0.02407705
133160,0.55500000,0.00374532
133161,0.61400000,0.00107009
133162,0.65450000,-0.00481541
133163,0.69500000,-0.04601391
133164,0.72200000,-0.03691814
133165,0.74000000,-0.03424291
133166,0.74950000,-0.02514714
133167,0.75850000,-0.03691814
133168,0.75400000,-0.03691814
133169,0.74000000,-0.04280364
133170,0.73100000,-0.05778491
133171,0.71300000,-0.05457464
133172,0.69500000,-0.05457464
133173,0.66800000,-0.05778491
133174,0.65000000,-0.05778491
133175,0.62300000,-0.04601391
133176,0.59550000,-0.02247191
133177,0.57750000,-0.03424291
133178,0.55500000,-0.02514714
133179,0.53250000,-0.02514714
133180,0.51450000,-0.00749064
133181,0.49650000,-0.02247191
133182,0.49200000,-0.03691814
133183,0.48300000,-0.02835741
133184,0.48300000,-0.00481541
133185,0.47850000,0.00107009
133186,0.47850000,0.00107009
133187,0.48300000,-0.01926164
133188,0.47850000,-0.03424291
133189,0.48300000,-0.03691814
133190,0.48750000,-0.04012841
133191,0.49200000,-0.04868914
133192,0.49650000,-0.04868914
133193,0.50100000,-0.05457464
133194,0.50550000,-0.10754414
133195,0.51450000,-0.11663991
133196,0.51900000,-0.06955591
133197,0.52800000,0.10593900
133198,0.54150000,0.31460674
133199,0.55500000,0.48475120
133200,0.55950000,0.39967897
133201,0.57300000,0.10647405
133202,0.58200000,-0.06046014
133203,0.59550000,-0.06634564
133204,0.60950000,-0.04012841
133205,0.61400000,-0.04868914
133206,0.62750000,-0.07223114
133207,0.63200000,-0.06955591
133208,0.64100000,-0.06634564
133209,0.65000000,-0.05778491
133210,0.66350000,-0.07544141
133211,0.67250000,-0.05778491
133212,0.68150000,-0.04868914
133213,0.69500000,-0.05457464
133214,0.70850000,-0.04601391
133215,0.71300000,-0.05457464
133216,0.73100000,-0.03691814
133217,0.74000000,-0.04012841
133218,0.75400000,-0.01926164
133219,0.75850000,0.00107009
133220,0.76300000,-0.00160514
133221,0.76300000,0.00642055
133222,0.76300000,0.02407705
133223,0.76300000,0.02996255
133224,0.75850000,0.05350455
133225,0.75850000,0.05617978
133226,0.76750000,0.07972178
133227,0.77200000,0.10326378
133228,0.79000000,0.10914928
133229,0.82150000,0.12092028
133230,0.84850000,0.13269128
133231,0.88950000,0.11235955
133232,0.93000000,0.09149278
133233,0.97950000,0.07383628
133234,1.02000000,0.04173355
133235,1.02350000,0.00909577
133236,1.02350000,0.00107009
133237,1.02350000,-0.01658641
133238,1.02350000,-0.01658641
133239,1.02350000,-0.03424291
133240,1.02350000,-0.04012841
133241,1.02350000,-0.05189941
133242,1.02350000,-0.05778491
133243,1.02350000,-0.05189941
133244,1.00200000,-0.05778491
133245,0.95250000,-0.05778491
133246,0.91200000,-0.05189941
133247,0.86200000,-0.04012841
133248,0.80800000,-0.04280364
133249,0.75850000,-0.03103264
133250,0.71300000,-0.02835741
133251,0.67250000,-0.03103264
133252,0.63200000,-0.04601391
133253,0.58650000,-0.03424291
133254,0.55500000,-0.02247191
133255,0.51900000,-0.00749064
133256,0.49200000,-0.01070091
133257,0.46950000,-0.01337614
133258,0.44200000,0.00107009
133259,0.42400000,0.00374532
133260,0.39700000,0.00107009
133261,0.37000000,-0.00749064
133262,0.33850000,-0.02835741
133263,0.30200000,-0.03691814
133264,0.26600000,-0.05189941
133265,0.22550000,-0.05778491
133266,0.18950000,-0.05457464
133267,0.15300000,-0.05778491
133268,0.12150000,-0.09577314
133269,0.09900000,-0.11663991
133270,0.07200000,-0.04868914
133271,0.06300000,0.11771001
133272,0.06300000,0.32316747
133273,0.05850000,0.47298020
133274,0.06300000,0.37613697
133275,0.07200000,0.08881755
133276,0.08100000,-0.06046014
133277,0.10350000,-0.06046014
133278,0.11700000,-0.05778491
133279,0.13050000,-0.05778491
133280,0.14850000,-0.06046014
133281,0.15750000,-0.06367041
133282,0.16700000,-0.07223114
133283,0.17600000,-0.07811664
133284,0.18050000,-0.07223114
133285,0.18050000,-0.07544141
133286,0.18050000,-0.06046014
133287,0.17600000,-0.04868914
133288,0.17150000,-0.04012841
133289,0.16200000,-0.04280364
133290,0.15300000,-0.02247191
133291,0.13500000,-0.02247191
133292,0.11700000,-0.03103264
133293,0.09900000,-0.01337614
133294,0.07200000,0.00107009
133295,0.05400000,0.00107009
133296,0.03150000,0.01230605
133297,0.00850000,0.02407705
133298,-0.00500000,0.03584805
133299,-0.00950000,0.05939005
133300,-0.00050000,0.07972178
133301,0.01300000,0.09737828
133302,0.03600000,0.11824505
133303,0.07650000,0.11824505
133304,0.11700000,0.10914928
133305,0.17150000,0.09470305
133306,0.22550000,0.07972178
133307,0.27500000,0.05939005
133308,0.32500000,0.03263777
133309,0.36550000,0.00963082
133310,0.39700000,-0.01070091
133311,0.42850000,-0.02247191
133312,0.43750000,-0.02514714
133313,0.43300000,-0.04280364
133314,0.42850000,-0.05778491
133315,0.41050000,-0.05457464
133316,0.38800000,-0.05778491
133317,0.35650000,-0.05778491
133318,0.32500000,-0.05778491
133319,0.28850000,-0.05778491
133320,0.24800000,-0.05189941
133321,0.20300000,-0.05457464
133322,0.16200000,-0.05457464
133323,0.12600000,-0.04012841
133324,0.08100000,-0.02247191
133325,0.04500000,-0.02247191
133326,0.00850000,-0.02247191
133327,-0.03650000,-0.01337614
133328,-0.07250000,0.00107009
133329,-0.10850000,-0.00481541
133330,-0.14050000,-0.02247191
133331,-0.17650000,-0.01337614
133332,-0.20350000,0.00107009
133333,-0.23050000,0.00107009
133334,-0.25750000,-0.01070091
133335,-0.28050000,-0.03424291
133336,-0.29850000,-0.04601391
133337,-0.31200000,-0.05189941
133338,-0.31650000,-0.05457464
133339,-0.32550000,-0.05778491
133340,-0.33450000,-0.05778491
133341,-0.32550000,-0.08400214
133342,-0.32550000,-0.12252541
133343,-0.31200000,-0.09577314
133344,-0.30300000,0.03584805
133345,-0.28950000,0.24130551
133346,-0.27150000,0.44087747
133347,-0.25300000,0.48475120
133348,-0.23950000,0.21455324
133349,-0.21700000,-0.02247191
133350,-0.20800000,-0.05457464
133351,-0.19450000,-0.03691814
133352,-0.18550000,-0.04280364
133353,-0.18100000,-0.05457464
133354,-0.18100000,-0.06046014
133355,-0.18550000,-0.06367041
133356,-0.25300000,-0.05778491
133357,-0.27100000,-0.06046014
133358,-0.28000000,-0.05778491
133359,-0.29350000,-0.05189941
133360,-0.30700000,-0.04601391
133361,-0.33000000,-0.03424291
133362,-0.33900000,-0.02835741
133363,-0.34800000,-0.02514714
133364,-0.36150000,-0.02247191
133365,-0.36600000,-0.01337614
133366,-0.37500000,-0.00481541
133367,-0.37950000,0.00107009
133368,-0.38850000,0.00107009
133369,-0.38850000,0.01230605
133370,-0.38850000,0.02407705
133371,-0.37950000,0.04173355
133372,-0.37050000,0.06795078
133373,-0.35250000,0.08293205
133374,-0.33000000,0.09737828
133375,-0.29350000,0.11824505
133376,-0.25300000,0.12413055
133377,-0.20350000,0.12413055
133378,-0.15350000,0.11503478
133379,-0.10400000,0.09470305
133380,-0.05450000,0.07972178
133381,-0.00450000,0.05617978
133382,0.03600000,0.02407705
133383,0.07200000,0.00374532
133384,0.09900000,0.00107009
133385,0.11300000,-0.01926164
133386,0.12200000,-0.02247191
133387,0.12200000,-0.03424291
133388,0.11750000,-0.03424291
133389,0.09900000,-0.03103264
133390,0.07650000,-0.03691814
133391,0.05400000,-0.03424291
133392,0.02700000,-0.03424291
133393,-0.00900000,-0.02835741
133394,-0.04550000,-0.03103264
133395,-0.08600000,-0.02247191
133396,-0.12200000,-0.02247191
133397,-0.16700000,-0.02247191
133398,-0.21250000,-0.02247191
133399,-0.25750000,-0.01070091
133400,-0.30250000,-0.00481541
133401,-0.34350000,0.00107009
133402,-0.38400000,-0.00749064
133403,-0.42900000,-0.02247191
133404,-0.46050000,-0.00481541
133405,-0.50150000,0.00107009
133406,-0.53300000,0.00107009
133407,-0.55550000,-0.01070091
133408,-0.57800000,-0.02835741
133409,-0.60500000,-0.03691814
133410,-0.62350000,-0.04280364
133411,-0.64150000,-0.04280364
133412,-0.65050000,-0.03691814
133413,-0.65950000,-0.04868914
133414,-0.65950000,-0.07544141
133415,-0.65950000,-0.11075441
133416,-0.65050000,-0.05457464
133417,-0.64600000,0.09737828
133418,-0.63700000,0.29373997
133419,-0.62350000,0.46976993
133420,-0.60050000,0.44034243
133421,-0.58700000,0.15623328
133422,-0.56900000,-0.03691814
133423,-0.55550000,-0.04868914
133424,-0.52850000,-0.02514714
133425,-0.51050000,-0.02835741
133426,-0.49700000,-0.04601391
133427,-0.48350000,-0.05778491
133428,-0.46500000,-0.05778491
133429,-0.46050000,-0.05457464
133430,-0.44700000,-0.05189941
133431,-0.44250000,-0.05457464
133432,-0.43800000,-0.04280364
133433,-0.43350000,-0.04012841
133434,-0.42900000,-0.02247191
133435,-0.43350000,-0.02247191
133436,-0.42900000,-0.01926164
133437,-0.42900000,-0.01926164
133438,-0.42900000,-0.01337614
133439,-0.43350000,-0.00481541
133440,-0.43350000,0.00107009
133441,-0.42900000,0.00107009
133442,-0.42450000,0.01230605
133443,-0.42450000,0.02675227
133444,-0.41100000,0.04440877
133445,-0.39300000,0.06206528
133446,-0.37050000,0.08293205
133447,-0.33450000,0.10914928
133448,-0.28900000,0.11824505
133449,-0.24400000,0.11824505
133450,-0.19000000,0.11824505
133451,-0.12650000,0.10914928
133452,-0.06800000,0.08560728
133453,-0.00450000,0.06206528
133454,0.05400000,0.03263777
133455,0.10850000,0.00963082
133456,0.15350000,-0.00160514
133457,0.19400000,-0.01070091
133458,0.22100000,-0.01926164
133459,0.24350000,-0.02514714
133460,0.25300000,-0.03691814
133461,0.25750000,-0.03424291
133462,0.24800000,-0.04012841
133463,0.23450000,-0.03691814
133464,0.22100000,-0.03424291
133465,0.19850000,-0.02835741
133466,0.17600000,-0.02514714
133467,0.14900000,-0.02247191
133468,0.11300000,-0.02247191
133469,0.08100000,-0.01070091
133470,0.04500000,-0.02247191
133471,0.00900000,-0.01926164
133472,-0.03600000,-0.00481541
133473,-0.07700000,0.00107009
133474,-0.10850000,-0.00481541
133475,-0.14900000,-0.01926164
133476,-0.18550000,-0.01658641
133477,-0.22150000,0.00107009
133478,-0.25300000,0.00107009
133479,-0.28000000,-0.00160514
133480,-0.31150000,-0.02247191
133481,-0.32500000,-0.03103264
133482,-0.34350000,-0.03103264
133483,-0.36600000,-0.03691814
133484,-0.37050000,-0.03424291
133485,-0.37500000,-0.03424291
133486,-0.37500000,-0.06046014
133487,-0.37500000,-0.10754414
133488,-0.36600000,-0.08988764
133489,-0.35700000,0.01819155
133490,-0.34800000,0.20278224
133491,-0.33000000,0.38790797
133492,-0.31600000,0.48742643
133493,-0.29800000,0.26752274
133494,-0.28000000,0.01230605
133495,-0.26200000,-0.05457464
133496,-0.24850000,-0.03691814
133497,-0.23950000,-0.02247191
133498,-0.22600000,-0.04280364
133499,-0.21250000,-0.04868914
133500,-0.20350000,-0.05778491
133501,-0.19900000,-0.05778491
133502,-0.18550000,-0.05457464
133503,-0.18550000,-0.04601391
133504,-0.18050000,-0.04280364
133505,-0.18050000,-0.03424291
133506,-0.17600000,-0.04012841
133507,-0.17600000,-0.02247191
133508,-0.18050000,-0.02247191
133509,-0.18050000,-0.02247191
133510,-0.18550000,-0.01926164
133511,-0.18550000,-0.01070091
133512,-0.18550000,0.00107009
133513,-0.19000000,0.00107009
133514,-0.18550000,0.00107009
133515,-0.18050000,0.01230605
133516,-0.17600000,0.02996255
133517,-0.16250000,0.04440877
133518,-0.14000000,0.06795078
133519,-0.11300000,0.08881755
133520,-0.06800000,0.10647405
133521,-0.02250000,0.11824505
133522,0.02700000,0.11503478
133523,0.09000000,0.10647405
133524,0.14450000,0.08560728
133525,0.21200000,0.07116105
133526,0.26650000,0.04173355
133527,0.31600000,0.01230605
133528,0.37450000,-0.00160514
133529,0.40650000,-0.01337614
133530,0.44250000,-0.02247191
133531,0.46050000,-0.03103264
133532,0.47850000,-0.03424291
133533,0.48300000,-0.04280364
133534,0.47850000,-0.04280364
133535,0.46500000,-0.04601391
133536,0.44250000,-0.03691814
133537,0.42000000,-0.04280364
133538,0.38800000,-0.03103264
133539,0.35650000,-0.02514714
133540,0.31600000,-0.02247191
133541,0.27100000,-0.01926164
133542,0.23450000,-0.02247191
133543,0.18500000,-0.01658641
133544,0.13550000,-0.00749064
133545,0.09000000,0.00107009
133546,0.04500000,-0.00160514
133547,0.00000000,-0.01926164
133548,-0.04100000,-0.01926164
133549,-0.07700000,0.00107009
133550,-0.10850000,0.00107009
133551,-0.14450000,-0.00749064
133552,-0.17150000,-0.02514714
133553,-0.19450000,-0.04012841
133554,-0.20800000,-0.05778491
133555,-0.22600000,-0.05778491
133556,-0.23500000,-0.05778491
133557,-0.24400000,-0.05457464
133558,-0.24850000,-0.06634564
133559,-0.24400000,-0.10754414
133560,-0.23500000,-0.11931514
133561,-0.23050000,-0.04012841
133562,-0.22150000,0.12680578
133563,-0.21250000,0.32637774
133564,-0.19900000,0.47886570
133565,-0.18550000,0.34403424
133566,-0.17600000,0.07116105
133567,-0.16250000,-0.05189941
133568,-0.14900000,-0.04868914
133569,-0.14000000,-0.03691814
133570,-0.13100000,-0.05457464
133571,-0.11750000,-0.05778491
133572,-0.11300000,-0.05778491
133573,-0.10850000,-0.05778491
133574,-0.10400000,-0.06046014
133575,-0.10850000,-0.05778491
133576,-0.10400000,-0.05778491
133577,-0.10400000,-0.05778491
133578,-0.11300000,-0.05457464
133579,-0.10850000,-0.04601391
133580,-0.11750000,-0.03424291
133581,-0.12650000,-0.03103264
133582,-0.13550000,-0.02247191
133583,-0.14000000,-0.02247191
133584,-0.14900000,-0.01658641
133585,-0.14900000,-0.00160514
133586,-0.15800000,0.00107009
133587,-0.16250000,0.00107009
133588,-0.15350000,0.01819155
133589,-0.13550000,0.03852327
133590,-0.11750000,0.05939005
133591,-0.09050000,0.07704655
133592,-0.05000000,0.09470305
133593,0.00000000,0.09470305
133594,0.04950000,0.09149278
133595,0.11750000,0.08293205
133596,0.18050000,0.07383628
133597,0.24800000,0.05939005
133598,0.30700000,0.02996255
133599,0.36550000,0.00963082
133600,0.42000000,-0.00160514
133601,0.46500000,-0.02247191
133602,0.50100000,-0.03424291
133603,0.51900000,-0.04280364
133604,0.53700000,-0.05189941
133605,0.54650000,-0.04868914
133606,0.53700000,-0.05778491
133607,0.52800000,-0.04601391
133608,0.51000000,-0.04601391
133609,0.48750000,-0.03424291
133610,0.46050000,-0.03691814
133611,0.42450000,-0.02514714
133612,0.34300000,-0.02247191
133613,0.30250000,-0.01926164
133614,0.25750000,-0.02247191
133615,0.21700000,-0.01658641
133616,0.17150000,-0.00160514
133617,0.13100000,0.00107009
133618,0.08150000,-0.00160514
133619,0.03600000,-0.01070091
133620,-0.00900000,-0.01337614
133621,-0.04950000,0.00107009
133622,-0.09050000,0.00107009
133623,-0.12200000,-0.00481541
133624,-0.15800000,-0.02247191
133625,-0.18950000,-0.03691814
133626,-0.21200000,-0.04280364
133627,-0.23500000,-0.04868914
133628,-0.24850000,-0.04601391
133629,-0.26650000,-0.04601391
133630,-0.27100000,-0.06634564
133631,-0.27550000,-0.11342964
133632,-0.27550000,-0.11075441
133633,-0.28000000,-0.01070091
133634,-0.27100000,0.17067951
133635,-0.26650000,0.37881220
133636,-0.26200000,0.49652220
133637,-0.25300000,0.29373997
133638,-0.24400000,0.03584805
133639,-0.23000000,-0.03424291
133640,-0.22100000,-0.02514714
133641,-0.21650000,-0.02514714
133642,-0.20750000,-0.04280364
133643,-0.19850000,-0.05778491
133644,-0.19400000,-0.05778491
133645,-0.18950000,-0.05778491
133646,-0.18950000,-0.05778491
133647,-0.18500000,-0.05457464
133648,-0.18950000,-0.04601391
133649,-0.18500000,-0.04601391
133650,-0.18500000,-0.04280364
133651,-0.18950000,-0.03103264
133652,-0.19850000,-0.02514714
133653,-0.20300000,-0.02247191
133654,-0.20300000,-0.02247191
133655,-0.20750000,-0.01658641
133656,-0.21200000,-0.00160514
133657,-0.21650000,0.00107009
133658,-0.21200000,0.00107009
133659,-0.21200000,0.01819155
133660,-0.19850000,0.02996255
133661,-0.18500000,0.05029428
133662,-0.15800000,0.06795078
133663,-0.12650000,0.08560728
133664,-0.07650000,0.10647405
133665,-0.02700000,0.11824505
133666,0.03150000,0.11235955
133667,0.09500000,0.09737828
133668,0.16250000,0.08293205
133669,0.22600000,0.06527555
133670,0.29800000,0.03852327
133671,0.35250000,0.01498127
133672,0.40650000,0.00107009
133673,0.45150000,-0.00481541
133674,0.48750000,-0.02514714
133675,0.51050000,-0.02247191
133676,0.48800000,-0.02514714
133677,0.48800000,-0.03103264
133678,0.48350000,-0.03691814
133679,0.47000000,-0.03424291
133680,0.45200000,-0.03103264
133681,0.42000000,-0.02835741
133682,0.38850000,-0.02247191
133683,0.34800000,-0.02247191
133684,0.30750000,-0.01658641
133685,0.26650000,-0.02247191
133686,0.22150000,-0.01658641
133687,0.17200000,-0.00749064
133688,0.11750000,-0.00160514
133689,0.06800000,0.00107009
133690,0.01850000,-0.00749064
133691,-0.03150000,-0.00749064
133692,-0.08100000,0.00107009
133693,-0.12600000,0.00107009
133694,-0.16250000,0.00107009
133695,-0.20750000,-0.01658641
133696,-0.23450000,-0.02835741
133697,-0.26600000,-0.04280364
133698,-0.28900000,-0.04280364
133699,-0.31150000,-0.04601391
133700,-0.32950000,-0.04601391
133701,-0.33400000,-0.05778491
133702,-0.34300000,-0.10165864
133703,-0.34300000,-0.12252541
133704,-0.34750000,-0.06367041
133705,-0.33850000,0.10326378
133706,-0.32950000,0.30283574
133707,-0.32500000,0.48154093
133708,-0.31150000,0.38469770
133709,-0.30700000,0.10914928
133710,-0.29350000,-0.04012841
133711,-0.28900000,-0.04280364
133712,-0.27550000,-0.03103264
133713,-0.26600000,-0.05189941
133714,-0.26150000,-0.06046014
133715,-0.25700000,-0.06046014
133716,-0.24800000,-0.06955591
133717,-0.24350000,-0.06367041
133718,-0.24350000,-0.06955591
133719,-0.23900000,-0.06634564
133720,-0.24350000,-0.05778491
133721,-0.24350000,-0.05189941
133722,-0.24800000,-0.04868914
133723,-0.25250000,-0.05189941
133724,-0.25700000,-0.03424291
133725,-0.26600000,-0.02835741
133726,-0.27550000,-0.02247191
133727,-0.28000000,-0.01926164
133728,-0.28450000,0.00107009
133729,-0.28900000,0.00107009
133730,-0.28900000,0.00107009
133731,-0.28000000,0.01230605
133732,-0.27050000,0.02996255
133733,-0.25250000,0.05029428
133734,-0.22550000,0.06527555
133735,-0.18500000,0.08293205
133736,-0.13550000,0.08293205
133737,-0.08100000,0.08293205
133738,-0.01350000,0.07704655
133739,0.05000000,0.06206528
133740,0.19900000,0.04761905
133741,0.28200000,0.02086677
133742,0.37050000,0.00374532
133743,0.43700000,-0.00749064
133744,0.49200000,-0.02247191
133745,0.55300000,-0.02247191
133746,0.58600000,-0.03424291
133747,0.60850000,-0.04012841
133748,0.61950000,-0.03691814
133749,0.61950000,-0.04012841
133750,0.59700000,-0.04601391
133751,0.58050000,-0.04012841
133752,0.55300000,-0.03424291
133753,0.50850000,-0.03103264
133754,0.46450000,-0.02514714
133755,0.42000000,-0.02247191
133756,0.36500000,-0.02247191
133757,0.31500000,-0.02247191
133758,0.25450000,-0.02247191
133759,0.18800000,-0.00481541
133760,0.13250000,0.00107009
133761,0.07150000,-0.01658641
133762,0.00550000,-0.02247191
133763,-0.05000000,-0.00749064
133764,-0.10550000,0.00107009
133765,-0.16050000,0.00107009
133766,-0.20500000,-0.01658641
133767,-0.24900000,-0.03103264
133768,-0.27650000,-0.04601391
133769,-0.31550000,-0.04280364
133770,-0.33200000,-0.04868914
133771,-0.35950000,-0.05457464
133772,-0.36500000,-0.06046014
133773,-0.37650000,-0.09309791
133774,-0.37100000,-0.11663991
133775,-0.37650000,-0.04868914
133776,-0.36500000,0.10326378
133777,-0.35400000,0.28517924
133778,-0.33750000,0.45264848
133779,-0.32650000,0.35580524
133780,-0.31550000,0.09149278
133781,-0.30450000,-0.05189941
133782,-0.28250000,-0.05778491
133783,-0.27100000,-0.05189941
133784,-0.26000000,-0.05457464
133785,-0.24350000,-0.05778491
133786,-0.24350000,-0.05778491
133787,-0.23250000,-0.05778491
133788,-0.22700000,-0.05778491
133789,-0.22150000,-0.05778491
133790,-0.22150000,-0.05457464
133791,-0.21600000,-0.05457464
133792,-0.22700000,-0.04280364
133793,-0.22700000,-0.04280364
133794,-0.23800000,-0.03424291
133795,-0.24350000,-0.02514714
133796,-0.24900000,-0.02247191
133797,-0.25450000,-0.02247191
133798,-0.26550000,-0.01658641
133799,-0.27100000,0.00107009
133800,-0.27100000,0.00107009
133801,-0.27100000,0.00642055
133802,-0.26550000,0.02086677
133803,-0.24900000,0.03263777
133804,-0.34150000,0.05617978
133805,-0.29600000,0.07704655
133806,-0.24450000,0.08293205
133807,-0.17650000,0.09470305
133808,-0.09700000,0.08881755
133809,-0.01700000,0.08560728
133810,0.07950000,0.07116105
133811,0.17050000,0.05617978
133812,0.26150000,0.03584805
133813,0.35250000,0.00963082
133814,0.42650000,0.00107009
133815,0.48900000,-0.01070091
133816,0.53450000,-0.02247191
133817,0.56850000,-0.02835741
133818,0.59150000,-0.03103264
133819,0.60300000,-0.03691814
133820,0.59150000,-0.04012841
133821,0.57450000,-0.03424291
133822,0.54600000,-0.04012841
133823,0.51200000,-0.03424291
133824,0.47200000,-0.02514714
133825,0.41500000,-0.02514714
133826,0.36400000,-0.02247191
133827,0.30150000,-0.02247191
133828,0.24450000,-0.02247191
133829,0.17600000,-0.01070091
133830,0.11350000,-0.00160514
133831,0.03950000,0.00107009
133832,-0.02850000,-0.00749064
133833,-0.09100000,-0.01658641
133834,-0.15950000,-0.00481541
133835,-0.21600000,0.00107009
133836,-0.26750000,0.00107009
133837,-0.31850000,-0.01926164
133838,-0.36400000,-0.03103264
133839,-0.40950000,-0.04012841
133840,-0.44350000,-0.04601391
133841,-0.47200000,-0.04280364
133842,-0.50050000,-0.04868914
133843,-0.51750000,-0.05457464
133844,-0.52900000,-0.09309791
133845,-0.54600000,-0.11663991
133846,-0.55200000,-0.04601391
133847,-0.54600000,0.09149278
133848,-0.54600000,0.27019797
133849,-0.54050000,0.42322097
133850,-0.52900000,0.33493847
133851,-0.52350000,0.07704655
133852,-0.51200000,-0.05457464
133853,-0.49500000,-0.05189941
133854,-0.48350000,-0.04012841
133855,-0.48350000,-0.04601391
133856,-0.47200000,-0.05189941
133857,-0.46100000,-0.05778491
133858,-0.44950000,-0.05778491
133859,-0.44350000,-0.05778491
133860,-0.44350000,-0.05778491
133861,-0.44350000,-0.05189941
133862,-0.43800000,-0.04868914
133863,-0.44350000,-0.04280364
133864,-0.44350000,-0.04012841
133865,-0.44350000,-0.02514714
133866,-0.44950000,-0.02514714
133867,-0.44950000,-0.02247191
133868,-0.49750000,-0.02247191
133869,-0.50350000,-0.01070091
133870,-0.50350000,-0.00160514
133871,-0.50900000,0.00107009
133872,-0.50350000,0.00374532
133873,-0.49200000,0.01819155
133874,-0.47500000,0.02407705
133875,-0.45250000,0.05350455
133876,-0.41300000,0.06795078
133877,-0.36200000,0.08293205
133878,-0.28850000,0.08293205
133879,-0.22050000,0.08293205
133880,-0.13000000,0.06527555
133881,-0.03400000,0.05939005
133882,0.05650000,0.03852327
133883,0.14700000,0.02086677
133884,0.24350000,0.00374532
133885,0.32250000,-0.00481541
133886,0.37900000,-0.01658641
133887,0.43550000,-0.02514714
133888,0.47550000,-0.02835741
133889,0.49200000,-0.03691814
133890,0.50350000,-0.03691814
133891,0.50350000,-0.03103264
133892,0.49200000,-0.02247191
133893,0.45850000,-0.02835741
133894,0.41850000,-0.02835741
133895,0.37900000,-0.02247191
133896,0.32250000,-0.01926164
133897,0.27150000,-0.01337614
133898,0.21500000,-0.02247191
133899,0.15300000,-0.01658641
133900,0.08500000,-0.00749064
133901,0.02300000,0.00107009
133902,-0.04500000,0.00107009
133903,-0.10750000,-0.01658641
133904,-0.16950000,-0.01070091
133905,-0.23200000,0.00107009
133906,-0.28850000,0.00107009
133907,-0.34500000,0.00107009
133908,-0.39600000,-0.01926164
133909,-0.43550000,-0.02247191
133910,-0.47500000,-0.03103264
133911,-0.51450000,-0.03424291
133912,-0.54850000,-0.03691814
133913,-0.56550000,-0.02247191
133914,-0.58250000,-0.05189941
133915,-0.59950000,-0.10486891
133916,-0.61050000,-0.09898341
133917,-0.61050000,-0.01070091
133918,-0.61650000,0.14446228
133919,-0.61050000,0.31728197
133920,-0.61050000,0.41733547
133921,-0.60500000,0.25575174
133922,-0.59400000,0.02140182
133923,-0.58800000,-0.05457464
133924,-0.58250000,-0.02835741
133925,-0.57700000,-0.02835741
133926,-0.57100000,-0.04280364
133927,-0.56550000,-0.05778491
133928,-0.55400000,-0.05778491
133929,-0.54850000,-0.05778491
133930,-0.54850000,-0.05778491
133931,-0.54300000,-0.05778491
133932,-0.52550000,-0.04601391
133933,-0.52550000,-0.04601391
133934,-0.52550000,-0.04280364
133935,-0.53100000,-0.03691814
133936,-0.53650000,-0.02835741
133937,-0.53650000,-0.02247191
133938,-0.54200000,-0.02247191
133939,-0.55300000,-0.02247191
133940,-0.55850000,-0.01070091
133941,-0.55850000,0.00107009
133942,-0.55850000,0.00107009
133943,-0.55300000,0.00642055
133944,-0.54750000,0.02086677
133945,-0.52550000,0.02996255
133946,-0.49200000,0.05617978
133947,-0.44250000,0.06527555
133948,-0.38700000,0.07704655
133949,-0.32050000,0.07972178
133950,-0.23750000,0.05939005
133951,-0.14900000,0.05029428
133952,-0.05500000,0.03263777
133953,0.03350000,0.01230605
133954,0.13300000,0.00107009
133955,0.21600000,-0.01337614
133956,0.28200000,-0.02835741
133957,0.33750000,-0.03691814
133958,0.38750000,-0.04601391
133959,0.41500000,-0.04868914
133960,0.43150000,-0.05457464
133961,0.43150000,-0.04601391
133962,0.42050000,-0.04868914
133963,0.39300000,-0.04601391
133964,0.36500000,-0.03691814
133965,0.32100000,-0.04601391
133966,0.27100000,-0.03691814
133967,0.21600000,0.02407705
133968,0.15500000,0.18245051
133969,0.08850000,0.36704120
133970,0.02800000,0.44355270
133971,-0.03850000,0.43766720
133972,-0.11050000,0.17067951
133973,-0.17700000,-0.10486891
133974,-0.23200000,-0.11342964
133975,-0.29300000,-0.07544141
133976,-0.34850000,-0.05778491
133977,-0.40350000,-0.05778491
133978,-0.44800000,-0.06367041
133979,-0.48650000,-0.07223114
133980,-0.53100000,-0.06955591
133981,-0.55850000,-0.06634564
133982,-0.58600000,-0.06367041
133983,-0.60850000,-0.05778491
133984,-0.62500000,-0.05778491
133985,-0.63050000,-0.05778491
133986,-0.64150000,-0.05189941
133987,-0.64150000,-0.04280364
133988,-0.63600000,-0.02835741
133989,-0.63600000,-0.02247191
133990,-0.61950000,-0.01337614
133991,-0.60850000,0.00107009
133992,-0.60300000,0.00374532
133993,-0.58600000,0.02996255
133994,-0.56950000,0.05029428
133995,-0.55300000,0.07383628
133996,-0.51400000,0.09470305
133997,-0.49750000,0.10914928
133998,-0.48100000,0.10647405
133999,-0.46500000,0.09470305
134000,-0.45400000,0.07972178
134001,-0.43750000,0.05350455
134002,-0.42100000,0.02086677
134003,-0.40450000,-0.00160514
134004,-0.38250000,-0.01926164
134005,-0.35550000,-0.03424291
134006,-0.33350000,-0.05189941
134007,-0.30600000,-0.05778491
134008,-0.27900000,-0.05778491
134009,-0.24600000,-0.05778491
134010,-0.22400000,-0.05778491
134011,-0.19150000,-0.05778491
134012,-0.16950000,-0.05778491
134013,-0.14750000,-0.04012841
134014,-0.14200000,-0.04280364
134015,-0.13650000,-0.03691814
134016,-0.13100000,-0.03691814
134017,-0.14200000,-0.03424291
134018,-0.15300000,-0.03424291
134019,-0.17500000,-0.03424291
134020,-0.19700000,-0.03691814
134021,-0.22950000,-0.04012841
134022,-0.25700000,-0.03691814
134023,-0.30050000,-0.04012841
134024,-0.33350000,-0.04280364
134025,-0.37750000,-0.04868914
134026,-0.41000000,-0.05189941
134027,-0.45950000,-0.04280364
134028,-0.49200000,-0.04868914
134029,-0.53050000,-0.04868914
134030,-0.55750000,-0.04601391
134031,-0.59600000,-0.03424291
134032,-0.62350000,-0.04012841
134033,-0.64500000,-0.05189941
134034,-0.66150000,-0.04601391
134035,-0.67250000,-0.04012841
134036,-0.68350000,-0.02247191
134037,-0.69450000,-0.03103264
134038,-0.69450000,-0.04012841
134039,-0.70000000,-0.02514714
134040,-0.68900000,-0.00160514
134041,-0.68350000,0.00107009
134042,-0.66700000,-0.02514714
134043,-0.66150000,-0.04280364
134044,-0.65050000,-0.05189941
134045,-0.63450000,-0.05189941
134046,-0.62350000,-0.05457464
134047,-0.61250000,-0.05457464
134048,-0.59600000,-0.05778491
134049,-0.59050000,-0.08988764
134050,-0.57400000,-0.09577314
134051,-0.56300000,-0.01658641
134052,-0.55750000,0.14713751
134053,-0.54700000,0.34403424
134054,-0.53600000,0.51952916
134055,-0.53050000,0.44622793
134056,-0.53050000,0.15623328
134057,-0.51950000,-0.01658641
134058,-0.51400000,-0.02247191
134059,-0.51400000,-0.02514714
134060,-0.50300000,-0.05189941
134061,-0.50850000,-0.05778491
134062,-0.50850000,-0.06955591
134063,-0.50850000,-0.06955591
134064,-0.51400000,-0.06955591
134065,-0.50850000,-0.06367041
134066,-0.51400000,-0.06634564
134067,-0.51950000,-0.05778491
134068,-0.51400000,-0.05778491
134069,-0.51950000,-0.05778491
134070,-0.52500000,-0.05457464
134071,-0.52500000,-0.04601391
134072,-0.51950000,-0.04280364
134073,-0.52500000,-0.03424291
134074,-0.51950000,-0.03103264
134075,-0.52500000,-0.02247191
134076,-0.51950000,-0.01337614
134077,-0.50300000,-0.00160514
134078,-0.48650000,0.00107009
134079,-0.44850000,0.00642055
134080,-0.41000000,0.02675227
134081,-0.35000000,0.04761905
134082,-0.27350000,0.06206528
134083,-0.19700000,0.08293205
134084,-0.09850000,0.09149278
134085,0.00550000,0.08881755
134086,0.12050000,0.08293205
134087,0.23000000,0.07383628
134088,0.32800000,0.05939005
134089,0.43750000,0.03852327
134090,0.51950000,0.01819155
134091,0.59600000,0.00107009
134092,0.65650000,-0.01070091
134093,0.70000000,-0.02247191
134094,0.72200000,-0.03424291
134095,0.73850000,-0.04280364
134096,0.73300000,-0.04601391
134097,0.70550000,-0.05457464
134098,0.67800000,-0.05189941
134099,0.64000000,-0.04601391
134100,0.58500000,-0.04601391
134101,0.52500000,-0.03424291
134102,0.46500000,-0.02514714
134103,0.39400000,-0.02514714
134104,0.32800000,-0.02514714
134105,0.25150000,-0.02247191
134106,0.17500000,-0.01926164
134107,0.10950000,-0.00481541
134108,0.03850000,-0.00481541
134109,-0.03800000,-0.02247191
134110,-0.09850000,-0.01926164
134111,-0.16400000,-0.01070091
134112,-0.21850000,0.00107009
134113,-0.27350000,-0.01337614
134114,-0.31700000,-0.03691814
134115,-0.36100000,-0.05457464
134116,-0.39350000,-0.05778491
134117,-0.41550000,-0.05778491
134118,-0.43750000,-0.05778491
134119,-0.44850000,-0.05778491
134120,-0.45950000,-0.08132691
134121,-0.46500000,-0.11663991
134122,-0.45950000,-0.13108614
134123,-0.45400000,-0.03691814
134124,-0.44300000,0.12680578
134125,-0.42650000,0.32316747
134126,-0.41550000,0.45853398
134127,-0.39900000,0.29962547
134128,-0.38250000,0.04173355
134129,-0.37200000,-0.05778491
134130,-0.35000000,-0.05457464
134131,-0.33900000,-0.05457464
134132,-0.32250000,-0.06046014
134133,-0.31700000,-0.07223114
134134,-0.30600000,-0.07811664
134135,-0.30050000,-0.07811664
134136,-0.29500000,-0.07223114
134137,-0.29000000,-0.06634564
134138,-0.29500000,-0.06367041
134139,-0.29000000,-0.06046014
134140,-0.29500000,-0.05778491
134141,-0.30600000,-0.05457464
134142,-0.31700000,-0.05457464
134143,-0.31700000,-0.04012841
134144,-0.32800000,-0.02835741
134145,-0.33900000,-0.02514714
134146,-0.34450000,-0.02247191
134147,-0.35550000,-0.00749064
134148,-0.36100000,0.00107009
134149,-0.36100000,0.00107009
134150,-0.35550000,0.02086677
134151,-0.34450000,0.02996255
134152,-0.32800000,0.05617978
134153,-0.29500000,0.07116105
134154,-0.25700000,0.08293205
134155,-0.20250000,0.08293205
134156,-0.14200000,0.07383628
134157,-0.06000000,0.06206528
134158,0.01650000,0.03852327
134159,0.09850000,0.02407705
134160,0.18050000,0.00374532
134161,0.26800000,-0.00749064
134162,0.34450000,-0.02835741
134163,0.40500000,-0.04012841
134164,0.46500000,-0.05189941
134165,0.50850000,-0.05778491
134166,0.53600000,-0.05778491
134167,0.55250000,-0.05778491
134168,0.55250000,-0.05778491
134169,0.55250000,-0.05457464
134170,0.53050000,-0.05778491
134171,0.49750000,-0.05457464
134172,0.46500000,-0.03691814
134173,0.41550000,-0.02514714
134174,0.37200000,-0.02514714
134175,0.31200000,-0.02247191
134176,0.25700000,-0.01926164
134177,0.19150000,0.00107009
134178,0.13150000,0.00107009
134179,0.06000000,0.00107009
134180,0.00000000,-0.01070091
134181,-0.05450000,0.00107009
134182,-0.11500000,0.00107009
134183,-0.17500000,0.00107009
134184,-0.22400000,-0.01337614
134185,-0.27900000,-0.02835741
134186,-0.32250000,-0.04601391
134187,-0.36100000,-0.04601391
134188,-0.35200000,-0.04601391
134189,-0.37650000,-0.04601391
134190,-0.40100000,-0.05189941
134191,-0.41550000,-0.08988764
134192,-0.42550000,-0.11663991
134193,-0.43500000,-0.08721241
134194,-0.44000000,0.06206528
134195,-0.44000000,0.26163724
134196,-0.43500000,0.45211343
134197,-0.43000000,0.43445693
134198,-0.42050000,0.16479401
134199,-0.41050000,-0.02514714
134200,-0.40550000,-0.04012841
134201,-0.39100000,-0.02514714
134202,-0.37150000,-0.04012841
134203,-0.36650000,-0.05778491
134204,-0.35200000,-0.05778491
134205,-0.35200000,-0.06367041
134206,-0.34200000,-0.06046014
134207,-0.33700000,-0.05778491
134208,-0.32750000,-0.05778491
134209,-0.32750000,-0.05778491
134210,-0.33250000,-0.05189941
134211,-0.32750000,-0.04280364
134212,-0.33700000,-0.03424291
134213,-0.33700000,-0.02247191
134214,-0.34200000,-0.02247191
134215,-0.34700000,-0.01658641
134216,-0.34700000,-0.00749064
134217,-0.35700000,0.00107009
134218,-0.35700000,0.00107009
134219,-0.35200000,0.01498127
134220,-0.34700000,0.02407705
134221,-0.32750000,0.04173355
134222,-0.29800000,0.05029428
134223,-0.26900000,0.06527555
134224,-0.22000000,0.08293205
134225,-0.15650000,0.08293205
134226,-0.08300000,0.08293205
134227,-0.00450000,0.07972178
134228,0.07350000,0.06795078
134229,0.16150000,0.05939005
134230,0.24950000,0.03852327
134231,0.32800000,0.01230605
134232,0.39650000,0.00107009
134233,0.45500000,-0.00749064
134234,0.50400000,-0.02247191
134235,0.53350000,-0.02835741
134236,0.55750000,-0.03424291
134237,0.56750000,-0.03424291
134238,0.56250000,-0.03424291
134239,0.54800000,-0.03424291
134240,0.52350000,-0.02835741
134241,0.49400000,-0.02835741
134242,0.45500000,-0.02247191
134243,0.40600000,-0.02247191
134244,0.35250000,-0.02247191
134245,0.29850000,-0.01926164
134246,0.24000000,-0.01337614
134247,0.17650000,-0.00160514
134248,0.11750000,0.00107009
134249,0.05900000,-0.00160514
134250,0.00000000,-0.01926164
134251,-0.05850000,-0.00749064
134252,-0.11250000,0.00107009
134253,-0.16100000,0.00107009
134254,-0.21000000,-0.01337614
134255,-0.25900000,-0.02514714
134256,-0.29300000,-0.03691814
134257,-0.32750000,-0.04012841
134258,-0.36150000,-0.03424291
134259,-0.39100000,-0.03424291
134260,-0.41050000,-0.03424291
134261,-0.42550000,-0.06955591
134262,-0.43500000,-0.11342964
134263,-0.44500000,-0.08988764
134264,-0.44500000,0.03584805
134265,-0.44500000,0.21187801
134266,-0.44000000,0.39058320
134267,-0.43500000,0.42322097
134268,-0.42050000,0.18833601
134269,-0.41550000,-0.01658641
134270,-0.40550000,-0.04280364
134271,-0.39100000,-0.02514714
134272,-0.38150000,-0.03424291
134273,-0.37150000,-0.05778491
134274,-0.35700000,-0.05778491
134275,-0.35700000,-0.05778491
134276,-0.35200000,-0.05778491
134277,-0.34700000,-0.05778491
134278,-0.34700000,-0.05457464
134279,-0.33700000,-0.04868914
134280,-0.34200000,-0.04012841
134281,-0.34700000,-0.04012841
134282,-0.34700000,-0.03424291
134283,-0.35200000,-0.03424291
134284,-0.35700000,-0.02247191
134285,-0.36150000,-0.02247191
134286,-0.37150000,-0.01337614
134287,-0.38150000,-0.00749064
134288,-0.37650000,0.00107009
134289,-0.38150000,0.00107009
134290,-0.37650000,0.01230605
134291,-0.36650000,0.02407705
134292,-0.35200000,0.04440877
134293,-0.32250000,0.06206528
134294,-0.28350000,0.07116105
134295,-0.22950000,0.07704655
134296,-0.16100000,0.07116105
134297,-0.09250000,0.06206528
134298,-0.01950000,0.05617978
134299,0.06850000,0.03263777
134300,0.14700000,0.01819155
134301,0.22050000,0.00107009
134302,0.29350000,-0.00160514
134303,0.35250000,-0.02247191
134304,0.40600000,-0.02247191
134305,0.44550000,-0.03424291
134306,0.46950000,-0.03691814
134307,0.47950000,-0.03691814
134308,0.47950000,-0.03691814
134309,0.47450000,-0.03424291
134310,0.45000000,-0.03103264
134311,0.42100000,-0.02247191
134312,0.38650000,-0.02514714
134313,0.34250000,-0.02247191
134314,0.29350000,-0.01926164
134315,0.24000000,-0.02247191
134316,0.16450000,-0.01658641
134317,0.11150000,-0.00481541
134318,0.04850000,0.00107009
134319,-0.01450000,0.00107009
134320,-0.07300000,-0.01070091
134321,-0.12100000,-0.01070091
134322,-0.17950000,0.00107009
134323,-0.23250000,0.00107009
134324,-0.28100000,0.00107009
134325,-0.32950000,-0.01070091
134326,-0.36350000,-0.02247191
134327,-0.40200000,-0.02247191
134328,-0.43600000,-0.02247191
134329,-0.46050000,-0.02247191
134330,-0.48450000,-0.02247191
134331,-0.49900000,-0.04280364
134332,-0.50850000,-0.08400214
134333,-0.52350000,-0.09309791
134334,-0.52350000,-0.01337614
134335,-0.52350000,0.13536651
134336,-0.51350000,0.31139647
134337,-0.51350000,0.43766720
134338,-0.50400000,0.29695024
134339,-0.49400000,0.06206528
134340,-0.48450000,-0.02247191
134341,-0.47950000,-0.02247191
134342,-0.46500000,-0.01926164
134343,-0.45050000,-0.03424291
134344,-0.45050000,-0.03424291
134345,-0.44100000,-0.04280364
134346,-0.43100000,-0.04601391
134347,-0.43100000,-0.04012841
134348,-0.42150000,-0.03424291
134349,-0.42150000,-0.03691814
134350,-0.41650000,-0.03103264
134351,-0.42150000,-0.02247191
134352,-0.42650000,-0.02247191
134353,-0.42650000,-0.02247191
134354,-0.43100000,-0.01658641
134355,-0.43600000,-0.01070091
134356,-0.44100000,0.00107009
134357,-0.44600000,0.00107009
134358,-0.44100000,0.00107009
134359,-0.44100000,0.00107009
134360,-0.44600000,0.01819155
134361,-0.42650000,0.02407705
134362,-0.41200000,0.03852327
134363,-0.37800000,0.05939005
134364,-0.33900000,0.07383628
134365,-0.28600000,0.08293205
134366,-0.22300000,0.08293205
134367,-0.15050000,0.08293205
134368,-0.06800000,0.07116105
134369,0.01450000,0.06206528
134370,0.09650000,0.04173355
134371,0.17900000,0.02086677
134372,0.26150000,0.00374532
134373,0.31950000,-0.00160514
134374,0.37300000,-0.01658641
134375,0.41650000,-0.02247191
134376,0.44050000,-0.02835741
134377,0.46000000,-0.03424291
134378,0.46000000,-0.04012841
134379,0.44550000,-0.03424291
134380,0.41200000,-0.03103264
134381,0.37800000,-0.02514714
134382,0.34400000,-0.02514714
134383,0.29100000,-0.02247191
134384,0.23750000,-0.01337614
134385,0.18450000,-0.00749064
134386,0.13100000,-0.01070091
134387,0.06800000,-0.00481541
134388,0.00500000,0.00107009
134389,-0.06750000,0.00107009
134390,-0.12550000,0.00107009
134391,-0.18850000,-0.00749064
134392,-0.24200000,-0.00481541
134393,-0.30500000,0.00107009
134394,-0.34850000,0.00107009
134395,-0.39700000,0.00107009
134396,-0.43550000,-0.01337614
134397,-0.47450000,-0.02247191
134398,-0.50850000,-0.03103264
134399,-0.53250000,-0.03424291
134400,-0.55200000,-0.03424291
134401,-0.57150000,-0.03103264
134402,-0.58100000,-0.05189941
134403,-0.59050000,-0.08988764
134404,-0.58600000,-0.10165864
134405,-0.58600000,-0.02247191
134406,-0.57600000,0.12359551
134407,-0.57150000,0.29106474
134408,-0.56150000,0.41144997
134409,-0.55200000,0.28785447
134410,-0.53750000,0.04761905
134411,-0.52300000,-0.04868914
134412,-0.51800000,-0.03103264
134413,-0.50350000,-0.02835741
134414,-0.48900000,-0.04012841
134415,-0.48400000,-0.04868914
134416,-0.46950000,-0.05457464
134417,-0.46500000,-0.05778491
134418,-0.46000000,-0.05778491
134419,-0.45000000,-0.04868914
134420,-0.45000000,-0.04280364
134421,-0.45000000,-0.04280364
134422,-0.45000000,-0.03424291
134423,-0.46000000,-0.02514714
134424,-0.45500000,-0.02247191
134425,-0.46500000,-0.02247191
134426,-0.47450000,-0.01926164
134427,-0.47950000,-0.01070091
134428,-0.48900000,-0.00160514
134429,-0.48900000,0.00107009
134430,-0.49400000,0.00107009
134431,-0.49400000,0.01230605
134432,-0.48900000,0.02407705
134433,-0.46950000,0.03852327
134434,-0.45500000,0.05939005
134435,-0.42100000,0.07116105
134436,-0.37750000,0.08293205
134437,-0.32450000,0.08293205
134438,-0.26600000,0.07972178
134439,-0.19350000,0.06527555
134440,-0.11100000,0.05939005
134441,-0.03850000,0.03584805
134442,0.04400000,0.01498127
134443,0.12150000,0.00107009
134444,0.21000000,-0.00481541
134445,0.27300000,-0.02247191
134446,0.32050000,-0.02247191
134447,0.35700000,-0.03103264
134448,0.37800000,-0.03424291
134449,0.39400000,-0.04012841
134450,0.38850000,-0.03691814
134451,0.37800000,-0.03424291
134452,0.34150000,-0.02514714
134453,0.31500000,-0.02247191
134454,0.26800000,-0.02247191
134455,0.22050000,-0.02247191
134456,0.16800000,-0.01337614
134457,0.11050000,-0.01070091
134458,0.05250000,-0.01926164
134459,-0.01050000,-0.01337614
134460,-0.07850000,-0.00749064
134461,-0.13650000,0.00107009
134462,-0.20450000,0.00107009
134463,-0.25700000,-0.01658641
134464,-0.32000000,-0.01926164
134465,-0.37250000,0.00107009
134466,-0.42000000,0.00107009
134467,-0.46200000,-0.00160514
134468,-0.49850000,-0.01658641
134469,-0.53550000,-0.02514714
134470,-0.55650000,-0.04280364
134471,-0.58800000,-0.03691814
134472,-0.60350000,-0.03691814
134473,-0.61400000,-0.03691814
134474,-0.62450000,-0.05778491
134475,-0.61950000,-0.09577314
134476,-0.61950000,-0.09577314
134477,-0.60900000,-0.00749064
134478,-0.60350000,0.15623328
134479,-0.59300000,0.33226324
134480,-0.58250000,0.43178170
134481,-0.56700000,0.27340824
134482,-0.55650000,0.03584805
134483,-0.54050000,-0.04280364
134484,-0.53000000,-0.02247191
134485,-0.51950000,-0.02514714
134486,-0.50900000,-0.04012841
134487,-0.50400000,-0.05189941
134488,-0.49350000,-0.05778491
134489,-0.49350000,-0.05457464
134490,-0.48300000,-0.04868914
134491,-0.47750000,-0.04601391
134492,-0.48300000,-0.04012841
134493,-0.48300000,-0.03424291
134494,-0.48800000,-0.02835741
134495,-0.48800000,-0.02247191
134496,-0.49350000,-0.02247191
134497,-0.49850000,-0.02247191
134498,-0.49850000,-0.01658641
134499,-0.50900000,-0.01070091
134500,-0.51950000,0.00107009
134501,-0.51450000,0.00107009
134502,-0.51950000,0.00107009
134503,-0.51450000,0.01498127
134504,-0.49850000,0.03263777
134505,-0.48300000,0.04761905
134506,-0.45650000,0.05939005
134507,-0.42000000,0.07972178
134508,-0.33000000,0.09149278
134509,-0.27300000,0.10058855
134510,-0.19600000,0.09737828
134511,-0.11850000,0.08560728
134512,-0.03100000,0.07704655
134513,0.05150000,0.05617978
134514,0.13950000,0.02996255
134515,0.21650000,0.01230605
134516,0.28900000,-0.00160514
134517,0.34550000,-0.00749064
134518,0.39200000,-0.02247191
134519,0.42300000,-0.02247191
134520,0.44850000,-0.03103264
134521,0.45400000,-0.02514714
134522,0.44350000,-0.03691814
134523,0.42800000,-0.03103264
134524,0.39700000,-0.02247191
134525,0.36100000,-0.02247191
134526,0.31450000,-0.02247191
134527,0.25800000,-0.02247191
134528,0.20100000,-0.01926164
134529,0.14950000,-0.01070091
134530,0.08750000,-0.01337614
134531,0.02050000,-0.01926164
134532,-0.05150000,-0.01337614
134533,-0.11350000,-0.00481541
134534,-0.17550000,-0.00160514
134535,-0.23200000,-0.00749064
134536,-0.28850000,-0.02247191
134537,-0.34550000,-0.01926164
134538,-0.39200000,0.00107009
134539,-0.43800000,0.00107009
134540,-0.46900000,-0.00749064
134541,-0.50000000,-0.02835741
134542,-0.52600000,-0.04280364
134543,-0.54150000,-0.04601391
134544,-0.55150000,-0.04601391
134545,-0.55700000,-0.04601391
134546,-0.56200000,-0.04868914
134547,-0.55700000,-0.07544141
134548,-0.55700000,-0.11663991
134549,-0.54150000,-0.08400214
134550,-0.53100000,0.04440877
134551,-0.51550000,0.22364901
134552,-0.51050000,0.40556447
134553,-0.49500000,0.42589620
134554,-0.47450000,0.18833601
134555,-0.45900000,-0.01926164
134556,-0.45350000,-0.03691814
134557,-0.43800000,-0.02247191
134558,-0.42800000,-0.03424291
134559,-0.42300000,-0.05189941
134560,-0.41250000,-0.05778491
134561,-0.40750000,-0.05778491
134562,-0.40200000,-0.05778491
134563,-0.40750000,-0.05778491
134564,-0.40750000,-0.05778491
134565,-0.40750000,-0.05189941
134566,-0.40750000,-0.04868914
134567,-0.41250000,-0.04012841
134568,-0.41750000,-0.03424291
134569,-0.42300000,-0.02514714
134570,-0.42300000,-0.02247191
134571,-0.43800000,-0.02247191
134572,-0.41200000,-0.01926164
134573,-0.41750000,-0.00749064
134574,-0.42800000,0.00107009
134575,-0.42800000,0.00107009
134576,-0.42250000,0.01230605
134577,-0.41750000,0.02407705
134578,-0.39650000,0.04173355
134579,-0.37050000,0.06206528
134580,-0.32350000,0.07704655
134581,-0.26600000,0.08293205
134582,-0.20350000,0.08293205
134583,-0.13050000,0.08293205
134584,-0.05200000,0.07116105
134585,0.03150000,0.05939005
134586,0.12550000,0.03263777
134587,0.20900000,0.00642055
134588,0.29250000,-0.00160514
134589,0.35500000,-0.01926164
134590,0.41250000,-0.02514714
134591,0.45950000,-0.04012841
134592,0.49600000,-0.04012841
134593,0.51150000,-0.04868914
134594,0.51650000,-0.05189941
134595,0.51650000,-0.04868914
134596,0.49600000,-0.04012841
134597,0.46450000,-0.04012841
134598,0.42800000,-0.03424291
134599,0.37600000,-0.03103264
134600,0.33400000,-0.02514714
134601,0.27650000,-0.02247191
134602,0.21400000,-0.02247191
134603,0.15150000,-0.02247191
134604,0.08350000,-0.02247191
134605,0.01550000,-0.01926164
134606,-0.04150000,-0.01070091
134607,-0.10450000,-0.00481541
134608,-0.16700000,-0.01926164
134609,-0.22450000,-0.02514714
134610,-0.27150000,-0.01658641
134611,-0.31850000,0.00107009
134612,-0.36000000,-0.00749064
134613,-0.40200000,-0.02247191
134614,-0.43300000,-0.04280364
134615,-0.45400000,-0.05189941
134616,-0.47500000,-0.05189941
134617,-0.49050000,-0.05457464
134618,-0.49050000,-0.05457464
134619,-0.50100000,-0.06046014
134620,-0.49550000,-0.09898341
134621,-0.49050000,-0.11663991
134622,-0.48550000,-0.06367041
134623,-0.47500000,0.10005350
134624,-0.46450000,0.29373997
134625,-0.44900000,0.46388443
134626,-0.42800000,0.37613697
134627,-0.42250000,0.10326378
134628,-0.40700000,-0.04012841
134629,-0.39150000,-0.02835741
134630,-0.38600000,-0.03103264
134631,-0.37550000,-0.04601391
134632,-0.37050000,-0.05778491
134633,-0.36550000,-0.05778491
134634,-0.36550000,-0.05778491
134635,-0.35500000,-0.05778491
134636,-0.33400000,-0.05778491
134637,-0.32900000,-0.05457464
134638,-0.32900000,-0.05457464
134639,-0.33400000,-0.04868914
134640,-0.33900000,-0.04280364
134641,-0.34450000,-0.03424291
134642,-0.35450000,-0.03103264
134643,-0.36000000,-0.02514714
134644,-0.37000000,-0.02247191
134645,-0.37500000,-0.01658641
134646,-0.38550000,-0.00749064
134647,-0.38050000,0.00107009
134648,-0.38550000,0.00107009
134649,-0.37500000,0.01819155
134650,-0.36000000,0.02996255
134651,-0.33900000,0.04761905
134652,-0.30300000,0.06795078
134653,-0.25200000,0.08293205
134654,-0.18500000,0.09149278
134655,-0.11300000,0.08560728
134656,-0.03600000,0.08293205
134657,0.05150000,0.07383628
134658,0.13900000,0.05617978
134659,0.23150000,0.02996255
134660,0.32400000,0.00963082
134661,0.39050000,-0.00160514
134662,0.46250000,-0.01926164
134663,0.51400000,-0.02247191
134664,0.55500000,-0.03103264
134665,0.57050000,-0.03424291
134666,0.58600000,-0.04280364
134667,0.58100000,-0.04601391
134668,0.56550000,-0.04601391
134669,0.54000000,-0.04012841
134670,0.50900000,-0.03691814
134671,0.46250000,-0.02835741
134672,0.41150000,-0.03103264
134673,0.35500000,-0.02247191
134674,0.29800000,-0.02247191
134675,0.23150000,-0.01926164
134676,0.16950000,-0.02247191
134677,0.10800000,-0.02247191
134678,0.03600000,-0.02247191
134679,-0.02550000,-0.00749064
134680,-0.08750000,-0.00160514
134681,-0.14400000,-0.01070091
134682,-0.20550000,-0.02247191
134683,-0.25700000,-0.00749064
134684,-0.30300000,0.00107009
134685,-0.33900000,-0.00160514
134686,-0.37500000,-0.02247191
134687,-0.40100000,-0.03691814
134688,-0.42150000,-0.04868914
134689,-0.44200000,-0.05778491
134690,-0.45250000,-0.05457464
134691,-0.45750000,-0.05778491
134692,-0.45750000,-0.06046014
134693,-0.45250000,-0.10165864
134694,-0.44200000,-0.11663991
134695,-0.43200000,-0.05189941
134696,-0.41650000,0.10058855
134697,-0.40600000,0.28785447
134698,-0.38550000,0.46120920
134699,-0.37500000,0.38790797
134700,-0.36300000,0.12092028
134701,-0.35250000,-0.03691814
134702,-0.34250000,-0.04012841
134703,-0.32200000,-0.02835741
134704,-0.31150000,-0.04280364
134705,-0.30650000,-0.05778491
134706,-0.30150000,-0.05778491
134707,-0.30150000,-0.05778491
134708,-0.30150000,-0.05778491
134709,-0.30150000,-0.05778491
134710,-0.30150000,-0.05778491
134711,-0.30650000,-0.04601391
134712,-0.31700000,-0.04280364
134713,-0.32200000,-0.03691814
134714,-0.33200000,-0.03103264
134715,-0.34250000,-0.02247191
134716,-0.34250000,-0.02247191
134717,-0.35750000,-0.01658641
134718,-0.36300000,-0.01337614
134719,-0.37300000,0.00107009
134720,-0.36800000,0.00107009
134721,-0.37300000,0.00642055
134722,-0.36300000,0.02086677
134723,-0.35250000,0.02996255
134724,-0.32700000,0.05350455
134725,-0.29650000,0.06527555
134726,-0.24550000,0.07972178
134727,-0.18400000,0.08293205
134728,-0.11250000,0.08293205
134729,-0.03050000,0.07972178
134730,0.05600000,0.06795078
134731,0.14800000,0.05029428
134732,0.23000000,0.02996255
134733,0.32200000,0.00642055
134734,0.39850000,-0.00481541
134735,0.46500000,-0.01926164
134736,0.52100000,-0.02247191
134737,0.56700000,-0.03103264
134738,0.59250000,-0.04012841
134739,0.60300000,-0.03691814
134740,0.60800000,-0.03424291
134741,0.59250000,-0.03424291
134742,0.56700000,-0.02835741
134743,0.54650000,-0.02247191
134744,0.50050000,-0.02247191
134745,0.45450000,-0.02247191
134746,0.40350000,-0.02247191
134747,0.35250000,-0.01337614
134748,0.29100000,-0.00160514
134749,0.23000000,-0.00749064
134750,0.16350000,-0.01070091
134751,0.09700000,-0.00749064
134752,0.03050000,0.00107009
134753,-0.03600000,0.00107009
134754,-0.09200000,0.00107009
134755,-0.15350000,-0.01658641
134756,-0.20950000,-0.01337614
134757,-0.25550000,0.00107009
134758,-0.29650000,0.00107009
134759,-0.33200000,-0.00481541
134760,-0.36300000,-0.02247191
134761,-0.38850000,-0.02835741
134762,-0.41400000,-0.03424291
134763,-0.42950000,-0.03691814
134764,-0.45650000,-0.03691814
134765,-0.46150000,-0.03691814
134766,-0.46650000,-0.06367041
134767,-0.46150000,-0.11075441
134768,-0.45650000,-0.10165864
134769,-0.44650000,0.00642055
134770,-0.43150000,0.17067951
134771,-0.41650000,0.35848047
134772,-0.41150000,0.44943820
134773,-0.39150000,0.26431247
134774,-0.38650000,0.03317282
134775,-0.37150000,-0.02835741
134776,-0.36150000,-0.02247191
134777,-0.35150000,-0.02514714
134778,-0.34650000,-0.04280364
134779,-0.34650000,-0.04601391
134780,-0.34650000,-0.05189941
134781,-0.34150000,-0.05778491
134782,-0.34650000,-0.05189941
134783,-0.34650000,-0.04868914
134784,-0.35150000,-0.04012841
134785,-0.35650000,-0.04012841
134786,-0.36150000,-0.03691814
134787,-0.37150000,-0.02835741
134788,-0.37650000,-0.02247191
134789,-0.38650000,-0.02247191
134790,-0.39150000,-0.02247191
134791,-0.40650000,-0.01926164
134792,-0.40650000,-0.00749064
134793,-0.41650000,0.00107009
134794,-0.41150000,0.00107009
134795,-0.41150000,0.00642055
134796,-0.39150000,0.01819155
134797,-0.37650000,0.02675227
134798,-0.33650000,0.05029428
134799,-0.29100000,0.06527555
134800,-0.24100000,0.07383628
134801,-0.17050000,0.06795078
134802,-0.08550000,0.05939005
134803,0.00000000,0.04440877
134804,0.09500000,0.03263777
134805,0.19550000,0.02086677
134806,0.28550000,0.00374532
134807,0.36600000,-0.00749064
134808,0.43600000,-0.02247191
134809,0.50650000,-0.03424291
134810,0.55150000,-0.03691814
134811,0.58150000,-0.04012841
134812,0.60150000,-0.04280364
134813,0.60150000,-0.03691814
134814,0.59150000,-0.04012841
134815,0.57150000,-0.03424291
134816,0.53650000,-0.02514714
134817,0.49650000,-0.03103264
134818,0.44600000,-0.01658641
134819,0.39600000,0.06795078
134820,0.33600000,0.24398074
134821,0.27050000,0.39379347
134822,0.21050000,0.42589620
134823,0.14500000,0.34670947
134824,0.07500000,0.00642055
134825,0.01000000,-0.11663991
134826,-0.05050000,-0.08400214
134827,-0.11550000,-0.05778491
134828,-0.16550000,-0.05778491
134829,-0.22100000,-0.05778491
134830,-0.27100000,-0.05778491
134831,-0.31600000,-0.05778491
134832,-0.36150000,-0.06046014
134833,-0.38650000,-0.05778491
134834,-0.42150000,-0.05778491
134835,-0.43650000,-0.05778491
134836,-0.45650000,-0.05189941
134837,-0.46650000,-0.04868914
134838,-0.47650000,-0.04280364
134839,-0.48150000,-0.03424291
134840,-0.47650000,-0.02247191
134841,-0.47650000,-0.02247191
134842,-0.47150000,-0.00481541
134843,-0.46150000,0.00107009
134844,-0.45150000,0.01230605
134845,-0.43650000,0.02996255
134846,-0.43150000,0.04761905
134847,-0.41650000,0.06527555
134848,-0.40150000,0.08293205
134849,-0.39150000,0.08293205
134850,-0.38650000,0.07704655
134851,-0.37650000,0.05939005
134852,-0.37150000,0.03852327
134853,-0.36150000,0.01819155
134854,-0.35650000,0.00107009
134855,-0.34650000,-0.01926164
134856,-0.33650000,-0.02247191
134857,-0.32100000,-0.04280364
134858,-0.30100000,-0.05189941
134859,-0.28600000,-0.05457464
134860,-0.26100000,-0.05189941
134861,-0.23600000,-0.04280364
134862,-0.21100000,-0.04012841
134863,-0.19100000,-0.03691814
134864,-0.16550000,-0.03103264
134865,-0.15050000,-0.02514714
134866,-0.14050000,-0.03103264
134867,-0.13550000,-0.02514714
134868,-0.13550000,-0.02247191
134869,-0.13550000,-0.02514714
134870,-0.15550000,-0.03103264
134871,-0.17050000,-0.02514714
134872,-0.19600000,-0.02835741
134873,-0.22600000,-0.03424291
134874,-0.25600000,-0.03691814
134875,-0.29600000,-0.04601391
134876,-0.32600000,-0.04601391
134877,-0.35650000,-0.03691814
134878,-0.40150000,-0.04280364
134879,-0.43150000,-0.04280364
134880,-0.46150000,-0.04601391
134881,-0.49150000,-0.04280364
134882,-0.52200000,-0.04868914
134883,-0.54700000,-0.04601391
134884,-0.56700000,-0.03691814
134885,-0.58200000,-0.03691814
134886,-0.59700000,-0.04012841
134887,-0.60700000,-0.03691814
134888,-0.61700000,-0.03691814
134889,-0.62200000,-0.04012841
134890,-0.62200000,-0.03424291
134891,-0.62200000,-0.04012841
134892,-0.64700000,-0.03103264
134893,-0.64200000,-0.03691814
134894,-0.63200000,-0.04601391
134895,-0.62200000,-0.04012841
134896,-0.62200000,-0.02247191
134897,-0.60700000,-0.01337614
134898,-0.59700000,-0.01658641
134899,-0.58700000,-0.02835741
134900,-0.58200000,-0.01658641
134901,-0.57200000,0.00107009
134902,-0.56200000,0.00107009
134903,-0.55200000,-0.00749064
134904,-0.54700000,-0.01926164
134905,-0.53700000,-0.02514714
134906,-0.53700000,-0.02835741
134907,-0.53200000,-0.03103264
134908,-0.52150000,-0.02835741
134909,-0.51650000,-0.03691814
134910,-0.51650000,-0.07223114
134911,-0.51150000,-0.06367041
134912,-0.50150000,0.02996255
134913,-0.50150000,0.19422151
134914,-0.50150000,0.36704120
134915,-0.50150000,0.49919743
134916,-0.49650000,0.37613697
134917,-0.49650000,0.11182451
134918,-0.50150000,-0.00481541
134919,-0.49650000,-0.00481541
134920,-0.49650000,-0.01658641
134921,-0.50150000,-0.03691814
134922,-0.50150000,-0.05778491
134923,-0.49650000,-0.05778491
134924,-0.50150000,-0.05778491
134925,-0.50150000,-0.05778491
134926,-0.50650000,-0.05778491
134927,-0.50650000,-0.05778491
134928,-0.50650000,-0.05778491
134929,-0.51150000,-0.04601391
134930,-0.50650000,-0.04280364
134931,-0.50650000,-0.03691814
134932,-0.51150000,-0.03424291
134933,-0.50650000,-0.02514714
134934,-0.50650000,-0.02247191
134935,-0.50150000,-0.02247191
134936,-0.49650000,-0.01070091
134937,-0.48650000,-0.00481541
134938,-0.46650000,0.00107009
134939,-0.44150000,0.00107009
134940,-0.40650000,0.01498127
134941,-0.36650000,0.02675227
134942,-0.29600000,0.05029428
134943,-0.22600000,0.06795078
134944,-0.13550000,0.08293205
134945,-0.04000000,0.09470305
134946,0.07500000,0.09149278
134947,0.18550000,0.08560728
134948,0.29600000,0.08293205
134949,0.40600000,0.06527555
134950,0.50150000,0.05029428
134951,0.58650000,0.02675227
134952,0.65700000,0.00642055
134953,0.71700000,-0.00160514
134954,0.75200000,-0.01658641
134955,0.77750000,-0.02247191
134956,0.79250000,-0.02835741
134957,0.77750000,-0.03691814
134958,0.75700000,-0.04012841
134959,0.72700000,-0.03424291
134960,0.68200000,-0.03691814
134961,0.62200000,-0.02514714
134962,0.56650000,-0.02514714
134963,0.50150000,-0.02247191
134964,0.43100000,-0.02247191
134965,0.36100000,-0.02247191
134966,0.28100000,-0.01337614
134967,0.21050000,-0.01070091
134968,0.13550000,-0.01337614
134969,0.06500000,-0.01070091
134970,-0.00500000,-0.01070091
134971,-0.07050000,-0.01658641
134972,-0.12550000,-0.02247191
134973,-0.18550000,-0.02247191
134974,-0.23600000,-0.01926164
134975,-0.27600000,-0.01070091
134976,-0.30600000,-0.01926164
134977,-0.33600000,-0.02247191
134978,-0.36100000,-0.02247191
134979,-0.38150000,-0.00481541
134980,-0.39150000,0.00107009
134981,-0.40150000,-0.01658641
134982,-0.39650000,-0.04012841
134983,-0.39650000,-0.04280364
134984,-0.39150000,-0.04868914
134985,-0.37650000,-0.05457464
134986,-0.36650000,-0.05189941
134987,-0.34600000,-0.04868914
134988,-0.33600000,-0.08721241
134989,-0.32100000,-0.09898341
134990,-0.30600000,-0.01658641
134991,-0.29600000,0.14713751
134992,-0.28100000,0.33493847
134993,-0.27600000,0.49652220
134994,-0.26600000,0.38469770
134995,-0.26100000,0.12092028
134996,-0.26100000,-0.01926164
134997,-0.26100000,-0.02247191
134998,-0.25600000,-0.02514714
134999,-0.26100000,-0.04601391
135000,-0.26100000,-0.05778491
135001,-0.27100000,-0.05778491
135002,-0.27600000,-0.05778491
135003,-0.28100000,-0.05778491
135004,-0.29100000,-0.05778491
135005,-0.30100000,-0.05778491
135006,-0.30600000,-0.04868914
135007,-0.32100000,-0.05189941
135008,-0.33100000,-0.04601391
135009,-0.34100000,-0.03103264
135010,-0.35600000,-0.02247191
135011,-0.36650000,-0.02514714
135012,-0.37650000,-0.02247191
135013,-0.39150000,-0.00749064
135014,-0.39650000,-0.00160514
135015,-0.40150000,0.00107009
135016,-0.40650000,0.00374532
135017,-0.40150000,0.01498127
135018,-0.39150000,0.02675227
135019,-0.36650000,0.05350455
135020,-0.34100000,0.07116105
135021,-0.29600000,0.08293205
135022,-0.24100000,0.09470305
135023,-0.17550000,0.10058855
135024,-0.09550000,0.08560728
135025,-0.01000000,0.07383628
135026,0.08000000,0.05617978
135027,0.17550000,0.02675227
135028,0.26050000,0.00374532
135029,0.35100000,-0.01070091
135030,0.42600000,-0.03103264
135031,0.49650000,-0.04012841
135032,0.54650000,-0.05457464
135033,0.58650000,-0.05778491
135034,0.61700000,-0.05778491
135035,0.62700000,-0.05778491
135036,0.62700000,-0.05778491
135037,0.61700000,-0.05778491
135038,0.59150000,-0.05778491
135039,0.56150000,-0.04601391
135040,0.52150000,-0.04601391
135041,0.47150000,-0.03103264
135042,0.41600000,-0.03424291
135043,0.36100000,-0.02247191
135044,0.30100000,-0.02247191
135045,0.24050000,-0.02247191
135046,0.16550000,-0.02247191
135047,0.11000000,-0.02247191
135048,0.04000000,-0.02247191
135049,-0.02000000,-0.02247191
135050,-0.08550000,-0.02514714
135051,-0.14550000,-0.02247191
135052,-0.19550000,-0.01337614
135053,-0.24600000,-0.02247191
135054,-0.29100000,-0.02835741
135055,-0.33600000,-0.02835741
135056,-0.37150000,-0.01070091
135057,-0.40150000,0.00107009
135058,-0.42150000,-0.01337614
135059,-0.44150000,-0.02514714
135060,-0.44650000,-0.03424291
135061,-0.45650000,-0.03691814
135062,-0.45650000,-0.03691814
135063,-0.46150000,-0.04012841
135064,-0.45150000,-0.04601391
135065,-0.44150000,-0.08132691
135066,-0.44150000,-0.11663991
135067,-0.43150000,-0.05457464
135068,-0.41650000,0.08881755
135069,-0.40650000,0.28196897
135070,-0.39150000,0.47886570
135071,-0.38650000,0.49063670
135072,-0.37650000,0.22953451
135073,-0.36650000,0.00963082
135074,-0.36650000,-0.01070091
135075,-0.35600000,-0.01926164
135076,-0.36100000,-0.04012841
135077,-0.35600000,-0.05778491
135078,-0.36100000,-0.06367041
135079,-0.36650000,-0.06955591
135080,-0.37150000,-0.07223114
135081,-0.37650000,-0.06955591
135082,-0.38150000,-0.06634564
135083,-0.38650000,-0.05778491
135084,-0.40800000,-0.05778491
135085,-0.41700000,-0.05457464
135086,-0.42150000,-0.04868914
135087,-0.43500000,-0.03691814
135088,-0.43950000,-0.03424291
135089,-0.44850000,-0.02514714
135090,-0.45750000,-0.02247191
135091,-0.46200000,-0.01658641
135092,-0.46200000,-0.00749064
135093,-0.46200000,-0.00160514
135094,-0.46200000,0.00107009
135095,-0.43950000,0.01230605
135096,-0.41700000,0.02407705
135097,-0.38100000,0.05029428
135098,-0.33650000,0.06527555
135099,-0.27800000,0.07972178
135100,-0.20200000,0.08293205
135101,-0.12550000,0.07704655
135102,-0.04500000,0.07116105
135103,0.04950000,0.05939005
135104,0.13900000,0.03852327
135105,0.22850000,0.01819155
135106,0.30950000,0.00107009
135107,0.37200000,-0.01658641
135108,0.43500000,-0.02247191
135109,0.48000000,-0.03424291
135110,0.51100000,-0.05189941
135111,0.52900000,-0.04601391
135112,0.53800000,-0.05189941
135113,0.52900000,-0.04868914
135114,0.51100000,-0.04868914
135115,0.48000000,-0.04601391
135116,0.45300000,-0.04012841
135117,0.40800000,-0.03424291
135118,0.36300000,-0.03691814
135119,0.30500000,-0.02835741
135120,0.25100000,-0.02247191
135121,0.18850000,-0.02247191
135122,0.13000000,-0.02247191
135123,0.07150000,-0.02247191
135124,0.01350000,-0.02247191
135125,-0.04950000,-0.02247191
135126,-0.10750000,-0.01926164
135127,-0.16150000,-0.02247191
135128,-0.21550000,-0.01070091
135129,-0.26000000,-0.00160514
135130,-0.30950000,-0.01337614
135131,-0.35000000,-0.02247191
135132,-0.39000000,-0.01926164
135133,-0.41250000,-0.00160514
135134,-0.44400000,0.00107009
135135,-0.46200000,-0.00749064
135136,-0.48000000,-0.02514714
135137,-0.49350000,-0.03424291
135138,-0.49350000,-0.04280364
135139,-0.49350000,-0.04280364
135140,-0.49800000,-0.04601391
135141,-0.49350000,-0.04601391
135142,-0.48900000,-0.07223114
135143,-0.48000000,-0.11342964
135144,-0.46650000,-0.07811664
135145,-0.45300000,0.05939005
135146,-0.44850000,0.24986624
135147,-0.43500000,0.44943820
135148,-0.43600000,0.49652220
135149,-0.42300000,0.24719101
135150,-0.41850000,0.00642055
135151,-0.41400000,-0.04280364
135152,-0.41000000,-0.03103264
135153,-0.41000000,-0.04280364
135154,-0.40550000,-0.05778491
135155,-0.41000000,-0.06046014
135156,-0.41400000,-0.06046014
135157,-0.41850000,-0.06046014
135158,-0.42750000,-0.05778491
135159,-0.43600000,-0.05778491
135160,-0.44050000,-0.05778491
135161,-0.44950000,-0.05457464
135162,-0.45400000,-0.04868914
135163,-0.46700000,-0.04012841
135164,-0.47150000,-0.03424291
135165,-0.48050000,-0.02247191
135166,-0.48450000,-0.02247191
135167,-0.49800000,-0.01070091
135168,-0.50250000,0.00107009
135169,-0.50650000,0.00107009
135170,-0.50250000,0.00374532
135171,-0.49350000,0.00909577
135172,-0.48450000,0.02407705
135173,-0.46250000,0.03852327
135174,-0.43200000,0.05939005
135175,-0.38750000,0.07704655
135176,-0.32600000,0.08881755
135177,-0.26900000,0.09470305
135178,-0.18950000,0.08560728
135179,-0.10550000,0.07704655
135180,-0.02200000,0.05939005
135181,0.06600000,0.04440877
135182,0.15400000,0.01819155
135183,0.23350000,0.00107009
135184,0.29500000,-0.01658641
135185,0.35700000,-0.02247191
135186,0.40550000,-0.04280364
135187,0.44050000,-0.04868914
135188,0.45850000,-0.04868914
135189,0.46700000,-0.05189941
135190,0.46700000,-0.05457464
135191,0.44950000,-0.05457464
135192,0.42750000,-0.04868914
135193,0.39200000,-0.04601391
135194,0.35700000,-0.04601391
135195,0.31300000,-0.03103264
135196,0.26000000,-0.02247191
135197,0.20700000,-0.02247191
135198,0.15000000,-0.02247191
135199,0.09700000,-0.01658641
135200,0.03950000,-0.01070091
135201,-0.02200000,-0.01070091
135202,-0.07950000,-0.01070091
135203,-0.13650000,-0.01337614
135204,-0.19400000,-0.01337614
135205,-0.24250000,-0.01926164
135206,-0.29100000,-0.01337614
135207,-0.33500000,-0.00481541
135208,-0.37450000,-0.01070091
135209,-0.41400000,-0.02247191
135210,-0.43600000,-0.01658641
135211,-0.46700000,0.00107009
135212,-0.48550000,0.00107009
135213,-0.50300000,-0.00749064
135214,-0.51150000,-0.02247191
135215,-0.52050000,-0.03103264
135216,-0.52500000,-0.03424291
135217,-0.52500000,-0.04012841
135218,-0.52500000,-0.04012841
135219,-0.52050000,-0.03691814
135220,-0.51600000,-0.06634564
135221,-0.50750000,-0.10486891
135222,-0.49400000,-0.06367041
135223,-0.48550000,0.06206528
135224,-0.47250000,0.24398074
135225,-0.46800000,0.42589620
135226,-0.45900000,0.46120920
135227,-0.45050000,0.23542001
135228,-0.44600000,0.00963082
135229,-0.44600000,-0.01337614
135230,-0.44150000,-0.01658641
135231,-0.44150000,-0.03103264
135232,-0.44150000,-0.05189941
135233,-0.44600000,-0.05778491
135234,-0.45050000,-0.05778491
135235,-0.45900000,-0.05778491
135236,-0.47250000,-0.05778491
135237,-0.47650000,-0.04868914
135238,-0.48550000,-0.04601391
135239,-0.49400000,-0.03424291
135240,-0.50300000,-0.03103264
135241,-0.51150000,-0.02514714
135242,-0.52500000,-0.02514714
135243,-0.52900000,-0.02247191
135244,-0.54250000,-0.02247191
135245,-0.54250000,-0.02247191
135246,-0.54650000,-0.00481541
135247,-0.55100000,0.00107009
135248,-0.54650000,0.00107009
135249,-0.53800000,0.00107009
135250,-0.52500000,0.01819155
135251,-0.49000000,0.02675227
135252,-0.45900000,0.05029428
135253,-0.40650000,0.06206528
135254,-0.35000000,0.07383628
135255,-0.27550000,0.07383628
135256,-0.19250000,0.07972178
135257,-0.10900000,0.06527555
135258,-0.01300000,0.05939005
135259,0.07450000,0.03584805
135260,0.16650000,0.02086677
135261,0.24100000,0.00107009
135262,0.31500000,0.00107009
135263,0.37200000,-0.01926164
135264,0.42000000,-0.02247191
135265,0.44650000,-0.02835741
135266,0.45950000,-0.03424291
135267,0.46850000,-0.04012841
135268,0.45950000,-0.03103264
135269,0.44650000,-0.02835741
135270,0.41150000,-0.02514714
135271,0.38100000,-0.02247191
135272,0.33700000,-0.02247191
135273,0.28900000,-0.02247191
135274,0.23650000,-0.02247191
135275,0.17500000,-0.01070091
135276,0.11400000,-0.01070091
135277,0.05250000,-0.00481541
135278,-0.00850000,-0.01337614
135279,-0.07400000,-0.00749064
135280,-0.13100000,-0.01070091
135281,-0.18800000,-0.00749064
135282,-0.24050000,-0.01926164
135283,-0.29300000,-0.02247191
135284,-0.34550000,-0.02247191
135285,-0.38900000,-0.01337614
135286,-0.42850000,-0.01070091
135287,-0.46350000,-0.01658641
135288,-0.49850000,-0.02247191
135289,-0.52500000,-0.01337614
135290,-0.54650000,0.00107009
135291,-0.56000000,0.00107009
135292,-0.56850000,-0.00160514
135293,-0.57750000,-0.02247191
135294,-0.57750000,-0.02514714
135295,-0.57300000,-0.02835741
135296,-0.57300000,-0.02514714
135297,-0.55550000,-0.02514714
135298,-0.55100000,-0.04280364
135299,-0.53800000,-0.08132691
135300,-0.52500000,-0.07544141
135301,-0.51600000,-0.00749064
135302,-0.49850000,0.14446228
135303,-0.49400000,0.30283574
135304,-0.48100000,0.44087747
135305,-0.47250000,0.33226324
135306,-0.46800000,0.10914928
135307,-0.46350000,-0.00749064
135308,-0.45500000,-0.01070091
135309,-0.45900000,-0.02247191
135310,-0.45500000,-0.03691814
135311,-0.45500000,-0.05457464
135312,-0.46350000,-0.05778491
135313,-0.46800000,-0.05778491
135314,-0.46800000,-0.05778491
135315,-0.47650000,-0.04868914
135316,-0.48100000,-0.04280364
135317,-0.49400000,-0.04012841
135318,-0.50300000,-0.03424291
135319,-0.51150000,-0.03424291
135320,-0.52050000,-0.02514714
135321,-0.53350000,-0.02247191
135322,-0.54250000,-0.02247191
135323,-0.55100000,-0.02247191
135324,-0.56000000,-0.01337614
135325,-0.56400000,-0.00160514
135326,-0.56400000,0.00107009
135327,-0.56400000,0.00107009
135328,-0.55550000,0.00909577
135329,-0.54250000,0.02675227
135330,-0.51600000,0.03852327
135331,-0.48100000,0.06206528
135332,-0.42850000,0.07383628
135333,-0.36750000,0.08293205
135334,-0.29750000,0.08293205
135335,-0.21400000,0.07972178
135336,-0.12650000,0.06206528
135337,-0.03500000,0.05350455
135338,0.04850000,0.02675227
135339,0.13600000,0.00374532
135340,0.21850000,-0.00160514
135341,0.28850000,-0.01926164
135342,0.34550000,-0.03103264
135343,0.38500000,-0.04012841
135344,0.42000000,-0.05457464
135345,0.43300000,-0.05457464
135346,0.43750000,-0.05457464
135347,0.43300000,-0.05457464
135348,0.41100000,-0.04601391
135349,0.38500000,-0.04601391
135350,0.34550000,-0.04012841
135351,0.30600000,-0.03103264
135352,0.24950000,-0.02247191
135353,0.20100000,-0.02247191
135354,0.14000000,-0.02247191
135355,0.07450000,-0.02247191
135356,0.01750000,-0.02247191
135357,-0.04400000,-0.02247191
135358,-0.10500000,-0.02247191
135359,-0.17050000,-0.02247191
135360,-0.22750000,-0.02247191
135361,-0.28450000,-0.02247191
135362,-0.33700000,-0.02247191
135363,-0.38500000,-0.02247191
135364,-0.42450000,-0.02247191
135365,-0.46400000,-0.01926164
135366,-0.49450000,-0.01926164
135367,-0.52500000,-0.02247191
135368,-0.54700000,-0.02835741
135369,-0.56450000,-0.01926164
135370,-0.57300000,0.00107009
135371,-0.57750000,-0.00160514
135372,-0.58200000,-0.02247191
135373,-0.57750000,-0.03103264
135374,-0.57300000,-0.04601391
135375,-0.56900000,-0.04280364
135376,-0.56450000,-0.04601391
135377,-0.55550000,-0.04280364
135378,-0.54250000,-0.05457464
135379,-0.52950000,-0.08400214
135380,-0.52050000,-0.08400214
135381,-0.50750000,0.00963082
135382,-0.49900000,0.16800428
135383,-0.49000000,0.33814874
135384,-0.48550000,0.46120920
135385,-0.48150000,0.32049224
135386,-0.47700000,0.06206528
135387,-0.47250000,-0.02835741
135388,-0.47250000,-0.02247191
135389,-0.47250000,-0.03103264
135390,-0.47700000,-0.05457464
135391,-0.48550000,-0.05778491
135392,-0.48550000,-0.06634564
135393,-0.49900000,-0.06046014
135394,-0.50300000,-0.05778491
135395,-0.50750000,-0.05778491
135396,-0.51650000,-0.06046014
135397,-0.52950000,-0.04868914
135398,-0.53400000,-0.04012841
135399,-0.54250000,-0.03691814
135400,-0.54700000,-0.02514714
135401,-0.55550000,-0.02514714
135402,-0.56000000,-0.02247191
135403,-0.56900000,-0.01926164
135404,-0.56450000,-0.01070091
135405,-0.56900000,-0.00749064
135406,-0.57350000,0.00107009
135407,-0.56450000,0.00374532
135408,-0.55100000,0.01819155
135409,-0.53750000,0.02675227
135410,-0.51000000,0.04761905
135411,-0.46950000,0.06527555
135412,-0.41100000,0.08293205
135413,-0.35200000,0.08293205
135414,-0.27100000,0.08881755
135415,-0.18500000,0.08293205
135416,-0.09950000,0.07972178
135417,-0.00450000,0.06206528
135418,0.09050000,0.04173355
135419,0.17600000,0.01230605
135420,0.25300000,0.00107009
135421,0.32500000,-0.01658641
135422,0.37500000,-0.02247191
135423,0.42000000,-0.03424291
135424,0.44700000,-0.04601391
135425,0.46050000,-0.04601391
135426,0.45600000,-0.05189941
135427,0.45150000,-0.04601391
135428,0.42450000,-0.04280364
135429,0.39750000,-0.03424291
135430,0.35700000,-0.03103264
135431,0.31150000,-0.02514714
135432,0.26200000,-0.01926164
135433,0.19850000,-0.01070091
135434,0.14000000,-0.01926164
135435,0.07250000,-0.00749064
135436,0.01350000,-0.01070091
135437,-0.05400000,-0.01337614
135438,-0.11300000,-0.01926164
135439,-0.18050000,-0.01337614
135440,-0.23500000,-0.01658641
135441,-0.29350000,-0.01658641
135442,-0.34300000,-0.01658641
135443,-0.39750000,-0.02247191
135444,-0.43350000,-0.02247191
135445,-0.46500000,-0.01658641
135446,-0.50100000,-0.01070091
135447,-0.51950000,-0.01070091
135448,-0.54200000,-0.01926164
135449,-0.55550000,-0.01658641
135450,-0.56000000,-0.00160514
135451,-0.56450000,0.00107009
135452,-0.56450000,-0.00160514
135453,-0.55550000,-0.01926164
135454,-0.54650000,-0.02835741
135455,-0.53300000,-0.03103264
135456,-0.52400000,-0.03103264
135457,-0.51000000,-0.03103264
135458,-0.49650000,-0.03691814
135459,-0.48300000,-0.06367041
135460,-0.47400000,-0.08988764
135461,-0.46050000,-0.04280364
135462,-0.45150000,0.09737828
135463,-0.44700000,0.28517924
135464,-0.44250000,0.46388443
135465,-0.44250000,0.46709470
135466,-0.43800000,0.21776351
135467,-0.43350000,0.00374532
135468,-0.40800000,-0.01337614
135469,-0.41250000,-0.01337614
135470,-0.41250000,-0.03424291
135471,-0.41700000,-0.05189941
135472,-0.42150000,-0.05778491
135473,-0.43500000,-0.05778491
135474,-0.43950000,-0.05778491
135475,-0.44400000,-0.05778491
135476,-0.45300000,-0.05778491
135477,-0.46200000,-0.04868914
135478,-0.47550000,-0.04601391
135479,-0.48400000,-0.03691814
135480,-0.49300000,-0.02835741
135481,-0.49750000,-0.02247191
135482,-0.50200000,-0.02514714
135483,-0.50650000,-0.02247191
135484,-0.52000000,-0.00749064
135485,-0.52000000,0.00107009
135486,-0.52000000,0.00107009
135487,-0.51550000,0.00642055
135488,-0.51550000,0.00642055
135489,-0.50200000,0.02086677
135490,-0.48400000,0.04173355
135491,-0.45300000,0.06206528
135492,-0.40800000,0.07972178
135493,-0.35400000,0.10058855
135494,-0.28250000,0.10326378
135495,-0.21050000,0.10326378
135496,-0.12100000,0.09149278
135497,-0.03150000,0.07972178
135498,0.06300000,0.05939005
135499,0.15250000,0.03263777
135500,0.23750000,0.00963082
135501,0.31850000,-0.00481541
135502,0.38100000,-0.02247191
135503,0.43500000,-0.02835741
135504,0.47550000,-0.03424291
135505,0.49800000,-0.04601391
135506,0.51600000,-0.04601391
135507,0.51150000,-0.05189941
135508,0.49800000,-0.04280364
135509,0.47100000,-0.04601391
135510,0.43950000,-0.03691814
135511,0.39450000,-0.02835741
135512,0.35450000,-0.02247191
135513,0.30050000,-0.02247191
135514,0.23750000,-0.02247191
135515,0.17950000,-0.02247191
135516,0.12100000,-0.01337614
135517,0.05400000,-0.01070091
135518,-0.00900000,-0.01658641
135519,-0.07150000,-0.02247191
135520,-0.12550000,-0.02247191
135521,-0.18400000,-0.02247191
135522,-0.23750000,-0.02247191
135523,-0.28700000,-0.02247191
135524,-0.33200000,-0.02247191
135525,-0.37200000,-0.02247191
135526,-0.40350000,-0.02247191
135527,-0.43500000,-0.00481541
135528,-0.45750000,-0.01070091
135529,-0.47100000,-0.01658641
135530,-0.48400000,-0.00160514
135531,-0.48850000,0.00107009
135532,-0.47600000,0.00107009
135533,-0.47600000,-0.00481541
135534,-0.46700000,-0.02247191
135535,-0.46300000,-0.02247191
135536,-0.45850000,-0.02835741
135537,-0.44950000,-0.03424291
135538,-0.43650000,-0.03691814
135539,-0.42750000,-0.03691814
135540,-0.41450000,-0.07544141
135541,-0.40100000,-0.08988764
135542,-0.39250000,-0.01337614
135543,-0.38350000,0.15302301
135544,-0.37450000,0.34670947
135545,-0.36600000,0.51952916
135546,-0.36600000,0.44622793
135547,-0.36150000,0.16479401
135548,-0.35700000,-0.00749064
135549,-0.35700000,-0.00749064
135550,-0.36150000,-0.01337614
135551,-0.36600000,-0.04280364
135552,-0.37450000,-0.05778491
135553,-0.37900000,-0.05778491
135554,-0.38350000,-0.05778491
135555,-0.39650000,-0.05778491
135556,-0.40550000,-0.05778491
135557,-0.41000000,-0.05778491
135558,-0.41900000,-0.04868914
135559,-0.42750000,-0.04868914
135560,-0.43650000,-0.03691814
135561,-0.44500000,-0.02835741
135562,-0.44950000,-0.02835741
135563,-0.45850000,-0.02247191
135564,-0.46300000,-0.02247191
135565,-0.46700000,-0.01658641
135566,-0.46700000,-0.00481541
135567,-0.47600000,0.00107009
135568,-0.46700000,0.00107009
135569,-0.45850000,0.00642055
135570,-0.44500000,0.02407705
135571,-0.41900000,0.04173355
135572,-0.38350000,0.06527555
135573,-0.33950000,0.08293205
135574,-0.28200000,0.09737828
135575,-0.20750000,0.11235955
135576,-0.12800000,0.10914928
135577,-0.04000000,0.09737828
135578,0.05700000,0.07972178
135579,0.14500000,0.05939005
135580,0.23800000,0.03263777
135581,0.31700000,0.00642055
135582,0.39200000,-0.00481541
135583,0.45800000,-0.01926164
135584,0.50650000,-0.02247191
135585,0.53750000,-0.03691814
135586,0.55500000,-0.05189941
135587,0.56800000,-0.04868914
135588,0.55500000,-0.04601391
135589,0.54200000,-0.04601391
135590,0.51550000,-0.04601391
135591,0.48000000,-0.04012841
135592,0.43600000,-0.03424291
135593,0.39200000,-0.02247191
135594,0.33900000,-0.02247191
135595,0.27750000,-0.02247191
135596,0.21550000,-0.02247191
135597,0.15400000,-0.02247191
135598,0.09250000,-0.02247191
135599,0.03050000,-0.02247191
135600,-0.03550000,-0.02247191
135601,-0.09250000,-0.02247191
135602,-0.14550000,-0.02247191
135603,-0.20300000,-0.02247191
135604,-0.25150000,-0.02247191
135605,-0.29100000,-0.02835741
135606,-0.33050000,-0.02247191
135607,-0.36150000,-0.01070091
135608,-0.39250000,-0.01926164
135609,-0.41450000,-0.02247191
135610,-0.43650000,-0.01926164
135611,-0.44950000,0.00107009
135612,-0.45400000,0.00107009
135613,-0.45850000,-0.01337614
135614,-0.45850000,-0.02835741
135615,-0.45400000,-0.04012841
135616,-0.44950000,-0.04601391
135617,-0.44100000,-0.04601391
135618,-0.42750000,-0.04280364
135619,-0.41450000,-0.04601391
135620,-0.40100000,-0.06955591
135621,-0.39250000,-0.09309791
135622,-0.37900000,-0.02835741
135623,-0.36600000,0.12092028
135624,-0.36150000,0.31728197
135625,-0.35250000,0.50240770
135626,-0.34850000,0.48475120
135627,-0.33950000,0.20599251
135628,-0.33950000,0.00374532
135629,-0.33500000,-0.00749064
135630,-0.33950000,-0.01658641
135631,-0.33950000,-0.03103264
135632,-0.34400000,-0.05778491
135633,-0.34850000,-0.05778491
135634,-0.35250000,-0.05778491
135635,-0.35700000,-0.05778491
135636,-0.37050000,-0.05778491
135637,-0.37900000,-0.05189941
135638,-0.38350000,-0.05457464
135639,-0.39250000,-0.04601391
135640,-0.40550000,-0.04012841
135641,-0.41450000,-0.02514714
135642,-0.41900000,-0.02514714
135643,-0.42750000,-0.02247191
135644,-0.43650000,-0.02247191
135645,-0.44100000,-0.01658641
135646,-0.44500000,-0.01070091
135647,-0.44950000,0.00107009
135648,-0.44100000,0.00107009
135649,-0.43650000,0.01230605
135650,-0.41900000,0.02407705
135651,-0.39650000,0.04440877
135652,-0.36150000,0.05939005
135653,-0.31300000,0.07972178
135654,-0.25550000,0.08881755
135655,-0.18100000,0.10058855
135656,-0.09700000,0.08881755
135657,-0.01350000,0.08293205
135658,0.08350000,0.07116105
135659,0.17150000,0.05350455
135660,0.26000000,0.02996255
135661,0.34850000,0.00374532
135662,0.42300000,-0.00481541
135663,0.48500000,-0.02247191
135664,0.54200000,-0.02835741
135665,0.57300000,-0.04012841
135666,0.59950000,-0.04868914
135667,0.60850000,-0.04601391
135668,0.60400000,-0.04868914
135669,0.58650000,-0.04601391
135670,0.56850000,-0.04601391
135671,0.53800000,-0.03691814
135672,0.49800000,-0.03103264
135673,0.44550000,-0.02514714
135674,0.39700000,-0.02247191
135675,0.34400000,-0.02247191
135676,0.28200000,-0.01658641
135677,0.22050000,-0.01926164
135678,0.15900000,-0.01658641
135679,0.09300000,-0.01926164
135680,0.03100000,-0.01926164
135681,-0.03050000,-0.02247191
135682,-0.08800000,-0.02247191
135683,-0.14500000,-0.01658641
135684,-0.19350000,-0.02247191
135685,-0.24650000,-0.02247191
135686,-0.29050000,-0.02247191
135687,-0.32600000,-0.01926164
135688,-0.36100000,-0.01337614
135689,-0.38300000,-0.01926164
135690,-0.40050000,-0.02247191
135691,-0.41400000,-0.01658641
135692,-0.43150000,0.00107009
135693,-0.43150000,0.00107009
135694,-0.43150000,-0.01337614
135695,-0.43600000,-0.02247191
135696,-0.42700000,-0.03103264
135697,-0.42300000,-0.03424291
135698,-0.41850000,-0.03424291
135699,-0.40500000,-0.03424291
135700,-0.39650000,-0.04012841
135701,-0.39200000,-0.07544141
135702,-0.37850000,-0.08988764
135703,-0.37000000,-0.02514714
135704,-0.36100000,0.11503478
135705,-0.35650000,0.30551097
135706,-0.35250000,0.48154093
135707,-0.35250000,0.43766720
135708,-0.34800000,0.18566078
135709,-0.35250000,0.00374532
135710,-0.35250000,-0.00160514
135711,-0.35650000,-0.01658641
135712,-0.36100000,-0.03691814
135713,-0.37000000,-0.05457464
135714,-0.37000000,-0.05778491
135715,-0.37850000,-0.05778491
135716,-0.38750000,-0.05778491
135717,-0.40050000,-0.05778491
135718,-0.40500000,-0.05189941
135719,-0.41400000,-0.05189941
135720,-0.42300000,-0.03691814
135721,-0.43600000,-0.04012841
135722,-0.44500000,-0.03424291
135723,-0.44900000,-0.03691814
135724,-0.46750000,-0.02247191
135725,-0.47600000,-0.02247191
135726,-0.48050000,-0.02247191
135727,-0.48450000,-0.00749064
135728,-0.48450000,-0.00481541
135729,-0.48050000,0.00107009
135730,-0.46300000,0.00107009
135731,-0.45000000,0.01498127
135732,-0.42000000,0.02675227
135733,-0.37650000,0.04173355
135734,-0.32450000,0.05939005
135735,-0.25550000,0.07383628
135736,-0.17750000,0.08293205
135737,-0.08650000,0.07704655
135738,0.00000000,0.06527555
135739,0.09500000,0.05617978
135740,0.19500000,0.03263777
135741,0.29000000,0.01230605
135742,0.36800000,-0.00160514
135743,0.44150000,-0.01658641
135744,0.49750000,-0.02835741
135745,0.54950000,-0.04012841
135746,0.58000000,-0.05189941
135747,0.59750000,-0.05457464
135748,0.59750000,-0.05189941
135749,0.59300000,-0.05189941
135750,0.56700000,-0.05457464
135751,0.54100000,-0.04868914
135752,0.50650000,-0.04280364
135753,0.45900000,-0.03103264
135754,0.41100000,-0.03103264
135755,0.35500000,-0.02514714
135756,0.30300000,-0.02247191
135757,0.23800000,-0.02247191
135758,0.17300000,-0.01926164
135759,0.11700000,-0.02247191
135760,0.05200000,-0.01658641
135761,-0.00850000,-0.02247191
135762,-0.06900000,-0.01658641
135763,-0.12550000,-0.02247191
135764,-0.18600000,-0.01926164
135765,-0.23350000,-0.02247191
135766,-0.28150000,-0.02247191
135767,-0.32050000,-0.02247191
135768,-0.35900000,-0.02247191
135769,-0.38500000,-0.02247191
135770,-0.41550000,-0.02247191
135771,-0.43700000,-0.04012841
135772,-0.45900000,-0.02514714
135773,-0.47200000,-0.01337614
135774,-0.48050000,0.00107009
135775,-0.48900000,-0.00749064
135776,-0.48900000,-0.02247191
135777,-0.48900000,-0.02835741
135778,-0.48900000,-0.04012841
135779,-0.48050000,-0.03424291
135780,-0.47600000,-0.03424291
135781,-0.47200000,-0.04280364
135782,-0.46750000,-0.06634564
135783,-0.45900000,-0.08400214
135784,-0.45900000,-0.04012841
135785,-0.45000000,0.08293205
135786,-0.45000000,0.24986624
135787,-0.44600000,0.41733547
135788,-0.46900000,0.44355270
135789,-0.46500000,0.23542001
135790,-0.46500000,0.02407705
135791,-0.46900000,0.00107009
135792,-0.46900000,-0.01070091
135793,-0.47350000,-0.02514714
135794,-0.48200000,-0.05189941
135795,-0.48600000,-0.05457464
135796,-0.49450000,-0.05778491
135797,-0.49900000,-0.05457464
135798,-0.50300000,-0.05778491
135799,-0.51600000,-0.05189941
135800,-0.52050000,-0.04868914
135801,-0.52450000,-0.03691814
135802,-0.53300000,-0.03424291
135803,-0.53750000,-0.02835741
135804,-0.53750000,-0.02247191
135805,-0.55000000,-0.02247191
135806,-0.55000000,-0.02247191
135807,-0.55000000,-0.01926164
135808,-0.55450000,-0.01337614
135809,-0.55000000,0.00107009
135810,-0.54600000,0.00107009
135811,-0.53300000,0.00107009
135812,-0.52050000,0.01819155
135813,-0.49050000,0.02996255
135814,-0.45200000,0.05029428
135815,-0.40950000,0.06527555
135816,-0.34950000,0.08293205
135817,-0.28150000,0.08881755
135818,-0.19600000,0.08881755
135819,-0.10650000,0.07972178
135820,-0.01700000,0.06795078
135821,0.08100000,0.04761905
135822,0.17050000,0.02675227
135823,0.25200000,0.00374532
135824,0.32450000,-0.00160514
135825,0.38400000,-0.02247191
135826,0.43950000,-0.03103264
135827,0.46950000,-0.04280364
135828,0.49050000,-0.04601391
135829,0.49900000,-0.05189941
135830,0.49900000,-0.04868914
135831,0.48200000,-0.04601391
135832,0.46100000,-0.04280364
135833,0.42250000,-0.03424291
135834,0.38850000,-0.03691814
135835,0.33300000,-0.02247191
135836,0.28600000,-0.02247191
135837,0.22600000,-0.02247191
135838,0.17050000,-0.02247191
135839,0.11100000,-0.02247191
135840,0.05550000,-0.02247191
135841,-0.01250000,-0.01658641
135842,-0.07250000,-0.02247191
135843,-0.12800000,-0.02247191
135844,-0.18750000,-0.02247191
135845,-0.24300000,-0.02247191
135846,-0.29850000,-0.02247191
135847,-0.34550000,-0.02247191
135848,-0.39250000,-0.02247191
135849,-0.42650000,-0.02247191
135850,-0.45650000,-0.02247191
135851,-0.49050000,-0.02247191
135852,-0.50650000,-0.02247191
135853,-0.51900000,-0.03103264
135854,-0.53150000,-0.02247191
135855,-0.53600000,-0.00160514
135856,-0.54450000,0.00107009
135857,-0.54000000,-0.01337614
135858,-0.54000000,-0.02835741
135859,-0.52750000,-0.04280364
135860,-0.51900000,-0.04012841
135861,-0.51100000,-0.04868914
135862,-0.49800000,-0.04601391
135863,-0.49400000,-0.04868914
135864,-0.48150000,-0.07223114
135865,-0.47300000,-0.08400214
135866,-0.46450000,-0.01070091
135867,-0.45650000,0.13536651
135868,-0.45200000,0.32049224
135869,-0.45200000,0.47565543
135870,-0.44800000,0.41144997
135871,-0.44800000,0.14713751
135872,-0.44800000,-0.01337614
135873,-0.45200000,-0.01926164
135874,-0.45650000,-0.02247191
135875,-0.45650000,-0.04868914
135876,-0.46900000,-0.05778491
135877,-0.47300000,-0.06046014
135878,-0.47750000,-0.05778491
135879,-0.48550000,-0.05778491
135880,-0.49400000,-0.05778491
135881,-0.50250000,-0.05778491
135882,-0.51500000,-0.05778491
135883,-0.52350000,-0.05457464
135884,-0.52750000,-0.04012841
135885,-0.53600000,-0.03424291
135886,-0.54450000,-0.03691814
135887,-0.54850000,-0.02514714
135888,-0.55250000,-0.02247191
135889,-0.55700000,-0.01926164
135890,-0.56100000,-0.01337614
135891,-0.56100000,-0.00160514
135892,-0.56100000,0.00107009
135893,-0.54450000,0.00374532
135894,-0.53150000,0.01819155
135895,-0.50650000,0.02996255
135896,-0.46900000,0.05617978
135897,-0.41850000,0.07383628
135898,-0.35600000,0.08293205
135899,-0.28450000,0.09149278
135900,-0.20500000,0.08881755
135901,-0.10900000,0.08293205
135902,-0.02100000,0.06527555
135903,0.07150000,0.05350455
135904,0.15900000,0.02407705
135905,0.24700000,0.00107009
135906,0.31400000,-0.00749064
135907,0.37700000,-0.02247191
135908,0.42300000,-0.03424291
135909,0.45650000,-0.04601391
135910,0.47350000,-0.05457464
135911,0.48600000,-0.05778491
135912,0.47750000,-0.05457464
135913,0.46050000,-0.05778491
135914,0.43550000,-0.04868914
135915,0.40200000,-0.04601391
135916,0.35600000,-0.03424291
135917,0.31400000,-0.03103264
135918,0.25950000,-0.02835741
135919,0.19700000,-0.02247191
135920,0.13850000,-0.02247191
135921,0.07950000,-0.02247191
135922,0.02100000,-0.02247191
135923,-0.04200000,-0.02247191
135924,-0.10050000,-0.02247191
135925,-0.15900000,-0.02247191
135926,-0.21750000,-0.02514714
135927,-0.26350000,-0.02247191
135928,-0.31800000,-0.02247191
135929,-0.36000000,-0.02247191
135930,-0.39750000,-0.03103264
135931,-0.43100000,-0.02247191
135932,-0.46450000,-0.02247191
135933,-0.48150000,-0.01926164
135934,-0.50650000,-0.02247191
135935,-0.51100000,-0.02514714
135936,-0.52750000,-0.01070091
135937,-0.52350000,0.00107009
135938,-0.52350000,0.00107009
135939,-0.52350000,-0.01070091
135940,-0.51100000,-0.02247191
135941,-0.50250000,-0.02247191
135942,-0.49800000,-0.03424291
135943,-0.48550000,-0.03103264
135944,-0.47300000,-0.03424291
135945,-0.46450000,-0.04012841
135946,-0.45200000,-0.07223114
135947,-0.44400000,-0.08400214
135948,-0.43550000,-0.00749064
135949,-0.43100000,0.15890851
135950,-0.42700000,0.34991974
135951,-0.42300000,0.51685393
135952,-0.41850000,0.42910647
135953,-0.41850000,0.14713751
135954,-0.42300000,-0.01070091
135955,-0.42700000,-0.01070091
135956,-0.43550000,-0.01337614
135957,-0.43550000,-0.04280364
135958,-0.44800000,-0.05457464
135959,-0.45200000,-0.05778491
135960,-0.45650000,-0.05778491
135961,-0.46450000,-0.05778491
135962,-0.47750000,-0.05778491
135963,-0.48550000,-0.05778491
135964,-0.48550000,-0.04601391
135965,-0.49400000,-0.04012841
135966,-0.50650000,-0.03424291
135967,-0.51100000,-0.03424291
135968,-0.51900000,-0.02247191
135969,-0.52750000,-0.02247191
135970,-0.53150000,-0.02247191
135971,-0.54000000,-0.01070091
135972,-0.54450000,0.00107009
135973,-0.54450000,0.00107009
135974,-0.54000000,0.00107009
135975,-0.53150000,0.01230605
135976,-0.51500000,0.02996255
135977,-0.48550000,0.05350455
135978,-0.44800000,0.06795078
135979,-0.40200000,0.08560728
135980,-0.33100000,0.10326378
135981,-0.26050000,0.11824505
135982,-0.17350000,0.10326378
135983,-0.09100000,0.09149278
135984,0.00450000,0.07972178
135985,0.09150000,0.05939005
135986,0.17850000,0.02675227
135987,0.25700000,0.00374532
135988,0.33150000,-0.00481541
135989,0.38950000,-0.01926164
135990,0.43500000,-0.03424291
135991,0.46800000,-0.04012841
135992,0.48450000,-0.04868914
135993,0.49700000,-0.04868914
135994,0.48900000,-0.05778491
135995,0.47650000,-0.05457464
135996,0.44750000,-0.04601391
135997,0.41850000,-0.04601391
135998,0.37700000,-0.04012841
135999,0.33550000,-0.03103264
136000,0.28600000,-0.02247191
136001,0.22800000,-0.02247191
136002,0.17000000,-0.02247191
136003,0.10800000,-0.02247191
136004,0.05000000,-0.01926164
136005,-0.01200000,-0.02247191
136006,-0.07000000,-0.02247191
136007,-0.12400000,-0.02247191
136008,-0.18200000,-0.02247191
136009,-0.23150000,-0.02247191
136010,-0.28150000,-0.02247191
136011,-0.33100000,-0.02247191
136012,-0.36850000,-0.02514714
136013,-0.40150000,-0.02835741
136014,-0.43050000,-0.02247191
136015,-0.45550000,-0.01926164
136016,-0.47200000,-0.02247191
136017,-0.48850000,-0.02247191
136018,-0.49250000,-0.02247191
136019,-0.50100000,-0.01337614
136020,-0.50100000,0.00107009
136021,-0.49250000,-0.00481541
136022,-0.49250000,-0.02514714
136023,-0.48400000,-0.03103264
136024,-0.47200000,-0.03691814
136025,-0.45950000,-0.04601391
136026,-0.44700000,-0.02835741
136027,-0.43850000,-0.03103264
136028,-0.42650000,-0.06046014
136029,-0.41400000,-0.08721241
136030,-0.40550000,-0.04868914
136031,-0.40150000,0.07972178
136032,-0.39300000,0.27929374
136033,-0.39750000,0.47298020
136034,-0.39300000,0.53718566
136035,-0.39300000,0.29695024
136036,-0.39750000,0.03905832
136037,-0.40150000,-0.01337614
136038,-0.40550000,-0.01658641
136039,-0.40950000,-0.03103264
136040,-0.41800000,-0.05457464
136041,-0.42650000,-0.05778491
136042,-0.43050000,-0.06367041
136043,-0.43850000,-0.06046014
136044,-0.43700000,-0.06046014
136045,-0.44550000,-0.05778491
136046,-0.45350000,-0.05778491
136047,-0.46200000,-0.05778491
136048,-0.47000000,-0.04868914
136049,-0.47400000,-0.03691814
136050,-0.48250000,-0.04012841
136051,-0.49050000,-0.03424291
136052,-0.49500000,-0.02247191
136053,-0.50300000,-0.02247191
136054,-0.50700000,-0.01658641
136055,-0.50700000,-0.00749064
136056,-0.50700000,0.00107009
136057,-0.49500000,0.00374532
136058,-0.48650000,0.01819155
136059,-0.46200000,0.02996255
136060,-0.42900000,0.05617978
136061,-0.38350000,0.07116105
136062,-0.32150000,0.08560728
136063,-0.25550000,0.10326378
136064,-0.17700000,0.10647405
136065,-0.09050000,0.09149278
136066,0.00000000,0.07972178
136067,0.09500000,0.06206528
136068,0.18600000,0.04440877
136069,0.27250000,0.01230605
136070,0.34650000,-0.00160514
136071,0.41700000,-0.01926164
136072,0.46650000,-0.02514714
136073,0.51150000,-0.04601391
136074,0.53650000,-0.05189941
136075,0.55300000,-0.05778491
136076,0.55300000,-0.05778491
136077,0.54050000,-0.05778491
136078,0.51600000,-0.05778491
136079,0.48700000,-0.05189941
136080,0.45000000,-0.04601391
136081,0.40850000,-0.03424291
136082,0.35900000,-0.03424291
136083,0.30550000,-0.03424291
136084,0.25200000,-0.02514714
136085,0.19400000,-0.02247191
136086,0.13200000,-0.02247191
136087,0.07450000,-0.02247191
136088,0.01250000,-0.02247191
136089,-0.04950000,-0.02247191
136090,-0.10300000,-0.02247191
136091,-0.15650000,-0.02247191
136092,-0.20200000,-0.02247191
136093,-0.24750000,-0.02247191
136094,-0.28850000,-0.02247191
136095,-0.32550000,-0.02514714
136096,-0.35850000,-0.02514714
136097,-0.37950000,-0.01926164
136098,-0.40400000,-0.01926164
136099,-0.42450000,-0.02247191
136100,-0.43300000,-0.03103264
136101,-0.43700000,-0.01658641
136102,-0.44550000,-0.01070091
136103,-0.44100000,-0.00160514
136104,-0.44100000,-0.01926164
136105,-0.43300000,-0.04012841
136106,-0.42450000,-0.05189941
136107,-0.42050000,-0.05189941
136108,-0.40100000,-0.03424291
136109,-0.39700000,-0.04012841
136110,-0.38900000,-0.05189941
136111,-0.38100000,-0.08721241
136112,-0.37250000,-0.07811664
136113,-0.36850000,0.02140182
136114,-0.36450000,0.20010701
136115,-0.36450000,0.39379347
136116,-0.36050000,0.53451043
136117,-0.36050000,0.37025147
136118,-0.36050000,0.08881755
136119,-0.36450000,-0.01926164
136120,-0.36850000,-0.01337614
136121,-0.37650000,-0.02835741
136122,-0.38100000,-0.05189941
136123,-0.38900000,-0.05778491
136124,-0.39300000,-0.05778491
136125,-0.40550000,-0.05778491
136126,-0.40950000,-0.05778491
136127,-0.41350000,-0.05778491
136128,-0.43000000,-0.05778491
136129,-0.43400000,-0.05457464
136130,-0.44200000,-0.04601391
136131,-0.45050000,-0.04012841
136132,-0.45850000,-0.03424291
136133,-0.46250000,-0.02514714
136134,-0.46650000,-0.02247191
136135,-0.47100000,-0.02247191
136136,-0.47900000,-0.01658641
136137,-0.47500000,-0.00160514
136138,-0.47500000,0.00107009
136139,-0.47100000,0.00107009
136140,-0.45050000,0.01498127
136141,-0.43400000,0.02407705
136142,-0.40100000,0.05029428
136143,-0.36050000,0.07116105
136144,-0.30700000,0.08560728
136145,-0.23750000,0.09470305
136146,-0.15950000,0.10058855
136147,-0.06950000,0.09149278
136148,0.02050000,0.07972178
136149,0.11050000,0.06795078
136150,0.20450000,0.05029428
136151,0.29450000,0.02407705
136152,0.37650000,0.00107009
136153,0.44600000,-0.01070091
136154,0.49950000,-0.02835741
136155,0.54450000,-0.03103264
136156,0.56900000,-0.04280364
136157,0.58150000,-0.04868914
136158,0.58150000,-0.05189941
136159,0.57700000,-0.04868914
136160,0.55650000,-0.04601391
136161,0.52800000,-0.04280364
136162,0.49550000,-0.04280364
136163,0.45050000,-0.03691814
136164,0.40100000,-0.02247191
136165,0.35200000,-0.02835741
136166,0.29450000,-0.02247191
136167,0.23750000,-0.02247191
136168,0.18000000,-0.01926164
136169,0.11450000,-0.02247191
136170,0.05750000,-0.01926164
136171,-0.00400000,-0.01926164
136172,-0.06150000,-0.01926164
136173,-0.11450000,-0.02247191
136174,-0.16400000,-0.02247191
136175,-0.21300000,-0.02247191
136176,-0.26200000,-0.02247191
136177,-0.30300000,-0.02514714
136178,-0.34000000,-0.02514714
136179,-0.36850000,-0.02247191
136180,-0.39300000,-0.01658641
136181,-0.41350000,-0.02247191
136182,-0.43000000,-0.02514714
136183,-0.43800000,-0.02835741
136184,-0.45050000,-0.01337614
136185,-0.45050000,0.00107009
136186,-0.44650000,-0.00749064
136187,-0.44650000,-0.02247191
136188,-0.44200000,-0.03424291
136189,-0.43400000,-0.03691814
136190,-0.42600000,-0.04280364
136191,-0.41350000,-0.02514714
136192,-0.40950000,-0.03424291
136193,-0.40100000,-0.05189941
136194,-0.39300000,-0.09309791
136195,-0.38900000,-0.06046014
136196,-0.38500000,0.05029428
136197,-0.38500000,0.22043874
136198,-0.38100000,0.39967897
136199,-0.38100000,0.49919743
136200,-0.38500000,0.30283574
136201,-0.38900000,0.05939005
136202,-0.39700000,0.00107009
136203,-0.40100000,-0.00160514
136204,-0.41350000,-0.02247191
136205,-0.42150000,-0.04280364
136206,-0.43000000,-0.05778491
136207,-0.43800000,-0.05457464
136208,-0.45050000,-0.05778491
136209,-0.45850000,-0.05457464
136210,-0.46650000,-0.04868914
136211,-0.47900000,-0.04601391
136212,-0.48700000,-0.04280364
136213,-0.49550000,-0.03424291
136214,-0.50350000,-0.03103264
136215,-0.51200000,-0.02247191
136216,-0.51600000,-0.02247191
136217,-0.52400000,-0.02247191
136218,-0.52800000,-0.01926164
136219,-0.53200000,-0.01658641
136220,-0.53200000,-0.00160514
136221,-0.53650000,0.00107009
136222,-0.52400000,0.00107009
136223,-0.51600000,0.00374532
136224,-0.48700000,0.02086677
136225,-0.45850000,0.03852327
136226,-0.40950000,0.05939005
136227,-0.34800000,0.07383628
136228,-0.27850000,0.08293205
136229,-0.19250000,0.08293205
136230,-0.10250000,0.07704655
136231,-0.00400000,0.06206528
136232,0.09400000,0.04761905
136233,0.18850000,0.02407705
136234,0.27850000,0.00374532
136235,0.36000000,-0.00749064
136236,0.41800000,-0.01926164
136237,0.47100000,-0.03691814
136238,0.51600000,-0.04280364
136239,0.54450000,-0.05189941
136240,0.55700000,-0.05778491
136241,0.56100000,-0.05457464
136242,0.54450000,-0.05778491
136243,0.52400000,-0.05778491
136244,0.49550000,-0.04601391
136245,0.45850000,-0.04280364
136246,0.41350000,-0.03424291
136247,0.36050000,-0.02247191
136248,0.31150000,-0.02247191
136249,0.25800000,-0.02247191
136250,0.20100000,-0.02247191
136251,0.13950000,-0.02247191
136252,0.07800000,-0.02247191
136253,0.02050000,-0.02247191
136254,-0.04050000,-0.02247191
136255,-0.09400000,-0.02247191
136256,-0.14700000,-0.02247191
136257,-0.19650000,-0.02247191
136258,-0.24950000,-0.02835741
136259,-0.28650000,-0.02247191
136260,-0.33150000,-0.02247191
136261,-0.36400000,-0.03103264
136262,-0.40100000,-0.03424291
136263,-0.42150000,-0.02835741
136264,-0.44600000,-0.02247191
136265,-0.45850000,-0.02247191
136266,-0.47450000,-0.02835741
136267,-0.47850000,-0.02247191
136268,-0.48300000,-0.00749064
136269,-0.47850000,-0.00160514
136270,-0.47850000,-0.01337614
136271,-0.47050000,-0.02247191
136272,-0.46250000,-0.02514714
136273,-0.45850000,-0.04012841
136274,-0.44600000,-0.04012841
136275,-0.43350000,-0.04601391
136276,-0.42950000,-0.04280364
136277,-0.42150000,-0.06367041
136278,-0.41300000,-0.08132691
136279,-0.40900000,-0.03691814
136280,-0.40500000,0.08293205
136281,-0.40500000,0.26163724
136282,-0.40500000,0.42589620
136283,-0.40900000,0.45532370
136284,-0.41750000,0.22364901
136285,-0.41750000,0.00963082
136286,-0.42950000,-0.02247191
136287,-0.43800000,-0.01926164
136288,-0.44600000,-0.03691814
136289,-0.45400000,-0.05778491
136290,-0.46650000,-0.05778491
136291,-0.47450000,-0.05778491
136292,-0.48700000,-0.06046014
136293,-0.49900000,-0.05778491
136294,-0.50750000,-0.05778491
136295,-0.51550000,-0.05457464
136296,-0.52800000,-0.05189941
136297,-0.54000000,-0.04012841
136298,-0.54000000,-0.03691814
136299,-0.54850000,-0.03424291
136300,-0.55150000,-0.02514714
136301,-0.55950000,-0.02247191
136302,-0.56350000,-0.02247191
136303,-0.56350000,-0.01658641
136304,-0.56350000,-0.00481541
136305,-0.56350000,0.00107009
136306,-0.55550000,0.00107009
136307,-0.53950000,0.01498127
136308,-0.51600000,0.02675227
136309,-0.48800000,0.05350455
136310,-0.44050000,0.06795078
136311,-0.38500000,0.08293205
136312,-0.31750000,0.09470305
136313,-0.23800000,0.09470305
136314,-0.15100000,0.08560728
136315,-0.05950000,0.07704655
136316,0.03950000,0.06527555
136317,0.12700000,0.04173355
136318,0.21450000,0.01498127
136319,0.28600000,0.00107009
136320,0.35300000,-0.01926164
136321,0.40100000,-0.02247191
136322,0.44450000,-0.03424291
136323,0.46450000,-0.04012841
136324,0.47250000,-0.04601391
136325,0.47250000,-0.04601391
136326,0.46450000,-0.04280364
136327,0.44050000,-0.04280364
136328,0.41300000,-0.03424291
136329,0.37300000,-0.03424291
136330,0.33350000,-0.02514714
136331,0.28200000,-0.02247191
136332,0.23400000,-0.02247191
136333,0.17850000,-0.02247191
136334,0.11900000,-0.01926164
136335,0.05950000,-0.01926164
136336,0.00400000,-0.02247191
136337,-0.05550000,-0.01926164
136338,-0.11500000,-0.02247191
136339,-0.17050000,-0.02247191
136340,-0.22200000,-0.02247191
136341,-0.27000000,-0.02247191
136342,-0.31350000,-0.02835741
136343,-0.35700000,-0.02247191
136344,-0.38900000,-0.02247191
136345,-0.42050000,-0.01926164
136346,-0.45250000,-0.02247191
136347,-0.47600000,-0.01926164
136348,-0.49200000,-0.01926164
136349,-0.50800000,-0.01658641
136350,-0.51600000,-0.02247191
136351,-0.51600000,-0.01658641
136352,-0.52000000,0.00107009
136353,-0.51600000,0.00107009
136354,-0.50800000,-0.00749064
136355,-0.50400000,-0.02247191
136356,-0.49600000,-0.03103264
136357,-0.48800000,-0.03424291
136358,-0.47600000,-0.03424291
136359,-0.46450000,-0.03424291
136360,-0.45650000,-0.04012841
136361,-0.44850000,-0.06367041
136362,-0.44050000,-0.08400214
136363,-0.43650000,-0.03691814
136364,-0.42200000,0.10326378
136365,-0.42200000,0.29106474
136366,-0.42200000,0.46976993
136367,-0.42550000,0.48154093
136368,-0.42550000,0.23220974
136369,-0.42550000,0.00374532
136370,-0.43350000,-0.01926164
136371,-0.43750000,-0.01658641
136372,-0.44500000,-0.04012841
136373,-0.44900000,-0.05778491
136374,-0.46100000,-0.06367041
136375,-0.46850000,-0.06955591
136376,-0.47250000,-0.06955591
136377,-0.48050000,-0.05778491
136378,-0.48800000,-0.06367041
136379,-0.49600000,-0.05778491
136380,-0.50400000,-0.05778491
136381,-0.50750000,-0.05778491
136382,-0.51550000,-0.05457464
136383,-0.51950000,-0.04601391
136384,-0.52350000,-0.03691814
136385,-0.52700000,-0.03103264
136386,-0.53100000,-0.02514714
136387,-0.53500000,-0.01658641
136388,-0.53500000,-0.00160514
136389,-0.53100000,0.00107009
136390,-0.52700000,0.00374532
136391,-0.51550000,0.01819155
136392,-0.49200000,0.02675227
136393,-0.45700000,0.04761905
136394,-0.41800000,0.06206528
136395,-0.36300000,0.08293205
136396,-0.29700000,0.09470305
136397,-0.21850000,0.10058855
136398,-0.13250000,0.08881755
136399,-0.04300000,0.07972178
136400,0.05100000,0.06206528
136401,0.13700000,0.03852327
136402,0.22300000,0.01230605
136403,0.29300000,-0.00160514
136404,0.35950000,-0.02247191
136405,0.41400000,-0.03691814
136406,0.45300000,-0.05189941
136407,0.47300000,-0.05457464
136408,0.48850000,-0.05778491
136409,0.48450000,-0.05778491
136410,0.47300000,-0.05778491
136411,0.45700000,-0.05778491
136412,0.42200000,-0.05778491
136413,0.38300000,-0.04601391
136414,0.34000000,-0.04012841
136415,0.29300000,-0.03691814
136416,0.23850000,-0.02247191
136417,0.18350000,-0.02247191
136418,0.12900000,-0.02247191
136419,0.07450000,-0.02247191
136420,0.01550000,-0.01337614
136421,-0.04300000,-0.01337614
136422,-0.10150000,-0.01070091
136423,-0.15200000,-0.01926164
136424,-0.20700000,-0.01926164
136425,-0.25750000,-0.02247191
136426,-0.30450000,-0.02247191
136427,-0.34350000,-0.02247191
136428,-0.36200000,-0.02247191
136429,-0.39300000,-0.02247191
136430,-0.42400000,-0.02514714
136431,-0.44350000,-0.02247191
136432,-0.45500000,-0.02247191
136433,-0.46700000,-0.01337614
136434,-0.47050000,-0.01337614
136435,-0.47850000,-0.02247191
136436,-0.47450000,-0.01658641
136437,-0.47050000,0.00107009
136438,-0.46700000,0.00107009
136439,-0.45900000,-0.00481541
136440,-0.44750000,-0.02247191
136441,-0.43550000,-0.03103264
136442,-0.42400000,-0.03424291
136443,-0.41250000,-0.03691814
136444,-0.40850000,-0.03424291
136445,-0.40050000,-0.03691814
136446,-0.39300000,-0.06955591
136447,-0.38900000,-0.08721241
136448,-0.38100000,-0.01658641
136449,-0.38100000,0.12948101
136450,-0.38100000,0.33226324
136451,-0.38100000,0.51685393
136452,-0.38100000,0.48742643
136453,-0.38900000,0.21187801
136454,-0.38900000,0.00053505
136455,-0.40050000,-0.01658641
136456,-0.40850000,-0.01926164
136457,-0.41600000,-0.04601391
136458,-0.42400000,-0.06367041
136459,-0.43200000,-0.06634564
136460,-0.43950000,-0.06634564
136461,-0.44350000,-0.06634564
136462,-0.45100000,-0.06046014
136463,-0.45900000,-0.05778491
136464,-0.46300000,-0.05778491
136465,-0.47050000,-0.05457464
136466,-0.47850000,-0.05189941
136467,-0.48650000,-0.04601391
136468,-0.49000000,-0.04012841
136469,-0.49800000,-0.02835741
136470,-0.49800000,-0.02247191
136471,-0.50200000,-0.01658641
136472,-0.50200000,-0.00481541
136473,-0.50550000,0.00107009
136474,-0.49800000,0.00107009
136475,-0.49000000,0.00909577
136476,-0.47850000,0.02407705
136477,-0.44750000,0.02996255
136478,-0.41250000,0.05350455
136479,-0.36550000,0.07383628
136480,-0.31100000,0.08560728
136481,-0.23750000,0.09737828
136482,-0.16350000,0.10326378
136483,-0.07750000,0.08560728
136484,0.01150000,0.08293205
136485,0.10900000,0.06206528
136486,0.19850000,0.04173355
136487,0.28000000,0.01230605
136488,0.35400000,-0.00160514
136489,0.42050000,-0.02514714
136490,0.47100000,-0.04012841
136491,0.50600000,-0.04868914
136492,0.53700000,-0.05778491
136493,0.54100000,-0.05778491
136494,0.54100000,-0.05778491
136495,0.53300000,-0.05778491
136496,0.50950000,-0.05778491
136497,0.47850000,-0.05778491
136498,0.44350000,-0.05778491
136499,0.39700000,-0.04601391
136500,0.35000000,-0.03103264
136501,0.29950000,-0.02247191
136502,0.24900000,-0.02835741
136503,0.19050000,-0.02247191
136504,0.12850000,-0.02247191
136505,0.07000000,-0.01337614
136506,0.00800000,-0.02247191
136507,-0.04250000,-0.02247191
136508,-0.10500000,-0.01926164
136509,-0.15150000,-0.01926164
136510,-0.20600000,-0.02247191
136511,-0.25300000,-0.02247191
136512,-0.29550000,-0.02247191
136513,-0.33450000,-0.01926164
136514,-0.36550000,-0.02247191
136515,-0.39300000,-0.02247191
136516,-0.41600000,-0.01926164
136517,-0.43200000,-0.01337614
136518,-0.44750000,-0.00749064
136519,-0.45500000,-0.01658641
136520,-0.45900000,-0.01658641
136521,-0.45900000,-0.00160514
136522,-0.45900000,0.00107009
136523,-0.45500000,0.00107009
136524,-0.43950000,-0.01070091
136525,-0.43550000,-0.02247191
136526,-0.42400000,-0.02835741
136527,-0.41250000,-0.03424291
136528,-0.40450000,-0.03424291
136529,-0.39300000,-0.03424291
136530,-0.38500000,-0.04601391
136531,-0.37750000,-0.08400214
136532,-0.37750000,-0.06634564
136533,-0.36950000,0.03852327
136534,-0.36550000,0.22043874
136535,-0.36950000,0.43766720
136536,-0.37350000,0.57570894
136537,-0.37750000,0.39058320
136538,-0.37750000,0.09737828
136539,-0.38500000,-0.01070091
136540,-0.38500000,-0.01337614
136541,-0.39700000,-0.02514714
136542,-0.40050000,-0.05457464
136543,-0.40850000,-0.06046014
136544,-0.41250000,-0.05778491
136545,-0.42400000,-0.06367041
136546,-0.43200000,-0.05778491
136547,-0.43550000,-0.05778491
136548,-0.44350000,-0.05778491
136549,-0.44750000,-0.05778491
136550,-0.45500000,-0.05457464
136551,-0.45900000,-0.04601391
136552,-0.46300000,-0.03691814
136553,-0.46700000,-0.03424291
136554,-0.47050000,-0.02835741
136555,-0.47850000,-0.02247191
136556,-0.47450000,-0.02247191
136557,-0.47100000,-0.01337614
136558,-0.46700000,0.00107009
136559,-0.46300000,0.00107009
136560,-0.45550000,0.00107009
136561,-0.43200000,0.02086677
136562,-0.40150000,0.03852327
136563,-0.35900000,0.06206528
136564,-0.30500000,0.07972178
136565,-0.24300000,0.10058855
136566,-0.16600000,0.10647405
136567,-0.08100000,0.09737828
136568,0.01150000,0.08560728
136569,0.10800000,0.07116105
136570,0.20450000,0.05029428
136571,0.28950000,0.02086677
136572,0.37450000,0.00374532
136573,0.44400000,-0.01926164
136574,0.49800000,-0.02835741
136575,0.54450000,-0.04280364
136576,0.57500000,-0.04868914
136577,0.59050000,-0.05189941
136578,0.59850000,-0.05778491
136579,0.59450000,-0.05778491
136580,0.57500000,-0.05778491
136581,0.54800000,-0.05778491
136582,0.51350000,-0.05778491
136583,0.47100000,-0.04601391
136584,0.42450000,-0.03424291
136585,0.37850000,-0.03103264
136586,0.32450000,-0.02514714
136587,0.26650000,-0.02247191
136588,0.20850000,-0.02247191
136589,0.15050000,-0.02247191
136590,0.09250000,-0.02247191
136591,0.03850000,-0.02247191
136592,-0.02300000,-0.02247191
136593,-0.07700000,-0.01658641
136594,-0.12750000,-0.02247191
136595,-0.17350000,-0.02247191
136596,-0.22000000,-0.02247191
136597,-0.25450000,-0.02247191
136598,-0.29300000,-0.02514714
136599,-0.32000000,-0.02247191
136600,-0.35100000,-0.02247191
136601,-0.37050000,-0.01658641
136602,-0.39350000,-0.02247191
136603,-0.40500000,-0.02247191
136604,-0.41300000,-0.01926164
136605,-0.41650000,0.00107009
136606,-0.41650000,0.00107009
136607,-0.41300000,-0.01070091
136608,-0.41300000,-0.02247191
136609,-0.40500000,-0.03424291
136610,-0.39750000,-0.04012841
136611,-0.38950000,-0.03691814
136612,-0.38600000,-0.03424291
136613,-0.37450000,-0.04280364
136614,-0.36250000,-0.06955591
136615,-0.36250000,-0.09309791
136616,-0.35900000,-0.03691814
136617,-0.35100000,0.10326378
136618,-0.35100000,0.29373997
136619,-0.34750000,0.48154093
136620,-0.36350000,0.48475120
136621,-0.36350000,0.22632424
136622,-0.36750000,0.00963082
136623,-0.37150000,-0.02247191
136624,-0.37500000,-0.02247191
136625,-0.38300000,-0.04868914
136626,-0.39050000,-0.05778491
136627,-0.39800000,-0.06634564
136628,-0.40600000,-0.06955591
136629,-0.41750000,-0.06367041
136630,-0.42500000,-0.06367041
136631,-0.43650000,-0.06046014
136632,-0.44800000,-0.05778491
136633,-0.45550000,-0.05778491
136634,-0.46300000,-0.05778491
136635,-0.46700000,-0.04868914
136636,-0.47450000,-0.04280364
136637,-0.47850000,-0.02514714
136638,-0.48600000,-0.02247191
136639,-0.48600000,-0.02247191
136640,-0.49400000,-0.01337614
136641,-0.49400000,-0.01070091
136642,-0.49000000,0.00107009
136643,-0.47850000,0.00107009
136644,-0.46300000,0.00642055
136645,-0.43650000,0.02675227
136646,-0.39800000,0.04440877
136647,-0.34850000,0.05939005
136648,-0.29100000,0.07704655
136649,-0.21450000,0.08293205
136650,-0.13400000,0.07972178
136651,-0.04600000,0.07704655
136652,0.04600000,0.05939005
136653,0.14550000,0.04173355
136654,0.23750000,0.01819155
136655,0.32150000,0.00374532
136656,0.38650000,-0.01337614
136657,0.45150000,-0.02835741
136658,0.50550000,-0.04868914
136659,0.53950000,-0.05778491
136660,0.56250000,-0.05778491
136661,0.57400000,-0.05778491
136662,0.57050000,-0.05778491
136663,0.55900000,-0.05778491
136664,0.53950000,-0.05778491
136665,0.50900000,-0.04601391
136666,0.46700000,-0.03424291
136667,0.42850000,-0.02835741
136668,0.37900000,-0.02247191
136669,0.32550000,-0.02247191
136670,0.27200000,-0.01658641
136671,0.21450000,-0.01070091
136672,0.15700000,-0.00749064
136673,0.10350000,-0.00749064
136674,0.04600000,-0.00749064
136675,-0.00750000,-0.01070091
136676,-0.06150000,-0.01070091
136677,-0.11850000,-0.01070091
136678,-0.16450000,-0.01337614
136679,-0.20650000,-0.01926164
136680,-0.25250000,-0.01658641
136681,-0.29500000,-0.01926164
136682,-0.32900000,-0.02247191
136683,-0.36000000,-0.02247191
136684,-0.40000000,-0.01926164
136685,-0.42250000,-0.01658641
136686,-0.43800000,-0.01337614
136687,-0.44900000,-0.02247191
136688,-0.45650000,-0.02247191
136689,-0.46050000,-0.01070091
136690,-0.46800000,0.00107009
136691,-0.46050000,0.00107009
136692,-0.45650000,-0.00749064
136693,-0.44900000,-0.02247191
136694,-0.44150000,-0.02247191
136695,-0.43800000,-0.02247191
136696,-0.43050000,-0.02514714
136697,-0.42250000,-0.02247191
136698,-0.41900000,-0.04601391
136699,-0.41500000,-0.07544141
136700,-0.41150000,-0.06955591
136701,-0.41150000,0.02728732
136702,-0.41150000,0.18245051
136703,-0.41150000,0.37292670
136704,-0.41500000,0.50775816
136705,-0.42250000,0.35848047
136706,-0.42250000,0.10326378
136707,-0.43400000,0.00107009
136708,-0.43800000,-0.00160514
136709,-0.44550000,-0.02247191
136710,-0.45300000,-0.04868914
136711,-0.46400000,-0.05778491
136712,-0.47550000,-0.05778491
136713,-0.49050000,-0.05778491
136714,-0.49800000,-0.05778491
136715,-0.50950000,-0.05457464
136716,-0.51700000,-0.04868914
136717,-0.52850000,-0.05189941
136718,-0.53950000,-0.04868914
136719,-0.54350000,-0.04012841
136720,-0.55500000,-0.02247191
136721,-0.56250000,-0.02247191
136722,-0.56250000,-0.01658641
136723,-0.57000000,-0.01658641
136724,-0.57350000,-0.00160514
136725,-0.57750000,0.00107009
136726,-0.57350000,0.00107009
136727,-0.56600000,0.00374532
136728,-0.55850000,0.01819155
136729,-0.53200000,0.02407705
136730,-0.49800000,0.04761905
136731,-0.45300000,0.05617978
136732,-0.39650000,0.07704655
136733,-0.32450000,0.08560728
136734,-0.24550000,0.09149278
136735,-0.15850000,0.08560728
136736,-0.06800000,0.08293205
136737,0.03400000,0.06527555
136738,0.12450000,0.04440877
136739,0.21850000,0.02086677
136740,0.29400000,0.00107009
136741,0.36950000,-0.00749064
136742,0.41850000,-0.02514714
136743,0.46000000,-0.03424291
136744,0.49400000,-0.03424291
136745,0.50950000,-0.03691814
136746,0.51300000,-0.04280364
136747,0.50550000,-0.04280364
136748,0.48650000,-0.04601391
136749,0.46000000,-0.03424291
136750,0.42250000,-0.03424291
